 	T (0)	Base X (0)	Base Y (0)	Tip X (0)	Tip Y (0)	||[body,base]|| (0)	||[base,tip]||  (0)	||[base,tip]|| : [body,base] (0)	[base,tip] ? [body,base] (0)	?||[base,tip]|| : [body,base] (0)	||[tip(t-1),tip(t)]|| : [base,tip] (0)	||[base(t-1),base(t)]|| : [base,tip] (0)	T (1)	Base X (1)	Base Y (1)	Tip X (1)	Tip Y (1)	||[body,base]|| (1)	||[base,tip]||  (1)	||[base,tip]|| : [body,base] (1)	[base,tip] ? [body,base] (1)	?||[base,tip]|| : [body,base] (1)	||[tip(t-1),tip(t)]|| : [base,tip] (1)	||[base(t-1),base(t)]|| : [base,tip] (1)	T (2)	Base X (2)	Base Y (2)	Tip X (2)	Tip Y (2)	||[body,base]|| (2)	||[base,tip]||  (2)	||[base,tip]|| : [body,base] (2)	[base,tip] ? [body,base] (2)	?||[base,tip]|| : [body,base] (2)	||[tip(t-1),tip(t)]|| : [base,tip] (2)	||[base(t-1),base(t)]|| : [base,tip] (2)	T (3)	Base X (3)	Base Y (3)	Tip X (3)	Tip Y (3)	||[body,base]|| (3)	||[base,tip]||  (3)	||[base,tip]|| : [body,base] (3)	[base,tip] ? [body,base] (3)	?||[base,tip]|| : [body,base] (3)	||[tip(t-1),tip(t)]|| : [base,tip] (3)	||[base(t-1),base(t)]|| : [base,tip] (3)	T (4)	Base X (4)	Base Y (4)	Tip X (4)	Tip Y (4)	||[body,base]|| (4)	||[base,tip]||  (4)	||[base,tip]|| : [body,base] (4)	[base,tip] ? [body,base] (4)	?||[base,tip]|| : [body,base] (4)	||[tip(t-1),tip(t)]|| : [base,tip] (4)	||[base(t-1),base(t)]|| : [base,tip] (4)	T (5)	Base X (5)	Base Y (5)	Tip X (5)	Tip Y (5)	||[body,base]|| (5)	||[base,tip]||  (5)	||[base,tip]|| : [body,base] (5)	[base,tip] ? [body,base] (5)	?||[base,tip]|| : [body,base] (5)	||[tip(t-1),tip(t)]|| : [base,tip] (5)	||[base(t-1),base(t)]|| : [base,tip] (5)	T (6)	Base X (6)	Base Y (6)	Tip X (6)	Tip Y (6)	||[body,base]|| (6)	||[base,tip]||  (6)	||[base,tip]|| : [body,base] (6)	[base,tip] ? [body,base] (6)	?||[base,tip]|| : [body,base] (6)	||[tip(t-1),tip(t)]|| : [base,tip] (6)	||[base(t-1),base(t)]|| : [base,tip] (6)	T (7)	Base X (7)	Base Y (7)	Tip X (7)	Tip Y (7)	||[body,base]|| (7)	||[base,tip]||  (7)	||[base,tip]|| : [body,base] (7)	[base,tip] ? [body,base] (7)	?||[base,tip]|| : [body,base] (7)	||[tip(t-1),tip(t)]|| : [base,tip] (7)	||[base(t-1),base(t)]|| : [base,tip] (7)	T (8)	Base X (8)	Base Y (8)	Tip X (8)	Tip Y (8)	||[body,base]|| (8)	||[base,tip]||  (8)	||[base,tip]|| : [body,base] (8)	[base,tip] ? [body,base] (8)	?||[base,tip]|| : [body,base] (8)	||[tip(t-1),tip(t)]|| : [base,tip] (8)	||[base(t-1),base(t)]|| : [base,tip] (8)
1	-20.000	NaN	NaN	NaN	NaN	NaN	NaN	NaN	NaN	NaN	NaN	NaN	NaN	NaN	NaN	NaN	NaN	NaN	NaN	NaN	NaN	NaN	NaN	NaN	NaN	NaN	NaN	NaN	NaN	NaN	NaN	NaN	NaN	NaN	NaN	NaN	NaN	NaN	NaN	NaN	NaN	NaN	NaN	NaN	NaN	NaN	NaN	NaN	NaN	NaN	NaN	NaN	NaN	NaN	NaN	NaN	NaN	NaN	NaN	NaN	NaN	NaN	NaN	NaN	NaN	NaN	NaN	NaN	NaN	NaN	NaN	NaN	NaN	NaN	NaN	NaN	NaN	NaN	NaN	NaN	NaN	NaN	NaN	NaN	NaN	NaN	NaN	NaN	NaN	NaN	NaN	NaN	NaN	NaN	NaN	NaN	55.000	316.000	343.000	NaN	NaN	NaN	NaN	NaN	NaN	NaN	NaN	NaN
2	-19.000	NaN	NaN	NaN	NaN	NaN	NaN	NaN	NaN	NaN	NaN	NaN	NaN	NaN	NaN	NaN	NaN	NaN	NaN	NaN	NaN	NaN	NaN	NaN	NaN	NaN	NaN	NaN	NaN	NaN	NaN	NaN	NaN	NaN	NaN	NaN	NaN	NaN	NaN	NaN	NaN	NaN	NaN	NaN	NaN	NaN	NaN	NaN	NaN	NaN	NaN	NaN	NaN	NaN	NaN	NaN	NaN	NaN	NaN	NaN	NaN	NaN	NaN	NaN	NaN	NaN	NaN	NaN	NaN	NaN	NaN	NaN	NaN	NaN	NaN	NaN	NaN	NaN	NaN	NaN	NaN	NaN	NaN	NaN	NaN	NaN	NaN	NaN	NaN	NaN	NaN	NaN	NaN	NaN	NaN	NaN	56.000	315.000	342.000	NaN	NaN	NaN	NaN	NaN	NaN	NaN	NaN	NaN
3	-18.000	NaN	NaN	NaN	NaN	NaN	NaN	NaN	NaN	NaN	NaN	NaN	NaN	NaN	NaN	NaN	NaN	NaN	NaN	NaN	NaN	NaN	NaN	NaN	NaN	NaN	NaN	NaN	NaN	NaN	NaN	NaN	NaN	NaN	NaN	NaN	NaN	NaN	NaN	NaN	NaN	NaN	NaN	NaN	NaN	NaN	NaN	NaN	NaN	NaN	NaN	NaN	NaN	NaN	NaN	NaN	NaN	NaN	NaN	NaN	NaN	NaN	NaN	NaN	NaN	NaN	NaN	NaN	NaN	NaN	NaN	NaN	NaN	NaN	NaN	NaN	NaN	NaN	NaN	NaN	NaN	NaN	NaN	NaN	NaN	NaN	NaN	NaN	NaN	NaN	NaN	NaN	NaN	NaN	NaN	NaN	57.000	316.000	344.000	NaN	NaN	NaN	NaN	NaN	NaN	NaN	NaN	NaN
4	-17.000	NaN	NaN	NaN	NaN	NaN	NaN	NaN	NaN	NaN	NaN	NaN	NaN	NaN	NaN	NaN	NaN	NaN	NaN	NaN	NaN	NaN	NaN	NaN	NaN	NaN	NaN	NaN	NaN	NaN	NaN	NaN	NaN	NaN	NaN	NaN	NaN	NaN	NaN	NaN	NaN	NaN	NaN	NaN	NaN	NaN	NaN	NaN	NaN	NaN	NaN	NaN	NaN	NaN	NaN	NaN	NaN	NaN	NaN	NaN	NaN	NaN	NaN	NaN	NaN	NaN	NaN	NaN	NaN	NaN	NaN	NaN	NaN	NaN	NaN	NaN	NaN	NaN	NaN	NaN	NaN	NaN	NaN	NaN	NaN	NaN	NaN	NaN	NaN	NaN	NaN	NaN	NaN	NaN	NaN	NaN	58.000	316.000	344.000	NaN	NaN	NaN	NaN	NaN	NaN	NaN	NaN	NaN
5	-16.000	NaN	NaN	NaN	NaN	NaN	NaN	NaN	NaN	NaN	NaN	NaN	NaN	NaN	NaN	NaN	NaN	NaN	NaN	NaN	NaN	NaN	NaN	NaN	NaN	NaN	NaN	NaN	NaN	NaN	NaN	NaN	NaN	NaN	NaN	NaN	NaN	NaN	NaN	NaN	NaN	NaN	NaN	NaN	NaN	NaN	NaN	NaN	NaN	NaN	NaN	NaN	NaN	NaN	NaN	NaN	NaN	NaN	NaN	NaN	NaN	NaN	NaN	NaN	NaN	NaN	NaN	NaN	NaN	NaN	NaN	NaN	NaN	NaN	NaN	NaN	NaN	NaN	NaN	NaN	NaN	NaN	NaN	NaN	NaN	NaN	NaN	NaN	NaN	NaN	NaN	NaN	NaN	NaN	NaN	NaN	59.000	314.000	344.000	NaN	NaN	NaN	NaN	NaN	NaN	NaN	NaN	NaN
6	-15.000	NaN	NaN	NaN	NaN	NaN	NaN	NaN	NaN	NaN	NaN	NaN	NaN	NaN	NaN	NaN	NaN	NaN	NaN	NaN	NaN	NaN	NaN	NaN	NaN	NaN	NaN	NaN	NaN	NaN	NaN	NaN	NaN	NaN	NaN	NaN	NaN	NaN	NaN	NaN	NaN	NaN	NaN	NaN	NaN	NaN	NaN	NaN	NaN	NaN	NaN	NaN	NaN	NaN	NaN	NaN	NaN	NaN	NaN	NaN	NaN	NaN	NaN	NaN	NaN	NaN	NaN	NaN	NaN	NaN	NaN	NaN	NaN	NaN	NaN	NaN	NaN	NaN	NaN	NaN	NaN	NaN	NaN	NaN	NaN	NaN	NaN	NaN	NaN	NaN	NaN	NaN	NaN	NaN	NaN	NaN	60.000	312.000	344.000	NaN	NaN	NaN	NaN	NaN	NaN	NaN	NaN	NaN
7	-14.000	NaN	NaN	NaN	NaN	NaN	NaN	NaN	NaN	NaN	NaN	NaN	NaN	NaN	NaN	NaN	NaN	NaN	NaN	NaN	NaN	NaN	NaN	NaN	NaN	NaN	NaN	NaN	NaN	NaN	NaN	NaN	NaN	NaN	NaN	NaN	NaN	NaN	NaN	NaN	NaN	NaN	NaN	NaN	NaN	NaN	NaN	NaN	NaN	NaN	NaN	NaN	NaN	NaN	NaN	NaN	NaN	NaN	NaN	NaN	NaN	NaN	NaN	NaN	NaN	NaN	NaN	NaN	NaN	NaN	NaN	NaN	NaN	NaN	NaN	NaN	NaN	NaN	NaN	NaN	NaN	NaN	NaN	NaN	NaN	NaN	NaN	NaN	NaN	NaN	NaN	NaN	NaN	NaN	NaN	NaN	61.000	312.000	344.000	NaN	NaN	NaN	NaN	NaN	NaN	NaN	NaN	NaN
8	-13.000	NaN	NaN	NaN	NaN	NaN	NaN	NaN	NaN	NaN	NaN	NaN	NaN	NaN	NaN	NaN	NaN	NaN	NaN	NaN	NaN	NaN	NaN	NaN	NaN	NaN	NaN	NaN	NaN	NaN	NaN	NaN	NaN	NaN	NaN	NaN	NaN	NaN	NaN	NaN	NaN	NaN	NaN	NaN	NaN	NaN	NaN	NaN	NaN	NaN	NaN	NaN	NaN	NaN	NaN	NaN	NaN	NaN	NaN	NaN	NaN	NaN	NaN	NaN	NaN	NaN	NaN	NaN	NaN	NaN	NaN	NaN	NaN	NaN	NaN	NaN	NaN	NaN	NaN	NaN	NaN	NaN	NaN	NaN	NaN	NaN	NaN	NaN	NaN	NaN	NaN	NaN	NaN	NaN	NaN	NaN	62.000	311.000	344.000	NaN	NaN	NaN	NaN	NaN	NaN	NaN	NaN	NaN
9	-12.000	NaN	NaN	NaN	NaN	NaN	NaN	NaN	NaN	NaN	NaN	NaN	NaN	NaN	NaN	NaN	NaN	NaN	NaN	NaN	NaN	NaN	NaN	NaN	NaN	NaN	NaN	NaN	NaN	NaN	NaN	NaN	NaN	NaN	NaN	NaN	NaN	NaN	NaN	NaN	NaN	NaN	NaN	NaN	NaN	NaN	NaN	NaN	NaN	NaN	NaN	NaN	NaN	NaN	NaN	NaN	NaN	NaN	NaN	NaN	NaN	NaN	NaN	NaN	NaN	NaN	NaN	NaN	NaN	NaN	NaN	NaN	NaN	NaN	NaN	NaN	NaN	NaN	NaN	NaN	NaN	NaN	NaN	NaN	NaN	NaN	NaN	NaN	NaN	NaN	NaN	NaN	NaN	NaN	NaN	NaN	63.000	311.000	344.000	NaN	NaN	NaN	NaN	NaN	NaN	NaN	NaN	NaN
10	-11.000	NaN	NaN	NaN	NaN	NaN	NaN	NaN	NaN	NaN	NaN	NaN	NaN	NaN	NaN	NaN	NaN	NaN	NaN	NaN	NaN	NaN	NaN	NaN	NaN	NaN	NaN	NaN	NaN	NaN	NaN	NaN	NaN	NaN	NaN	NaN	NaN	NaN	NaN	NaN	NaN	NaN	NaN	NaN	NaN	NaN	NaN	NaN	NaN	NaN	NaN	NaN	NaN	NaN	NaN	NaN	NaN	NaN	NaN	NaN	NaN	NaN	NaN	NaN	NaN	NaN	NaN	NaN	NaN	NaN	NaN	NaN	NaN	NaN	NaN	NaN	NaN	NaN	NaN	NaN	NaN	NaN	NaN	NaN	NaN	NaN	NaN	NaN	NaN	NaN	NaN	NaN	NaN	NaN	NaN	NaN	64.000	311.000	344.000	NaN	NaN	NaN	NaN	NaN	NaN	NaN	NaN	NaN
11	-10.000	NaN	NaN	NaN	NaN	NaN	NaN	NaN	NaN	NaN	NaN	NaN	NaN	NaN	NaN	NaN	NaN	NaN	NaN	NaN	NaN	NaN	NaN	NaN	NaN	NaN	NaN	NaN	NaN	NaN	NaN	NaN	NaN	NaN	NaN	NaN	NaN	NaN	NaN	NaN	NaN	NaN	NaN	NaN	NaN	NaN	NaN	NaN	NaN	NaN	NaN	NaN	NaN	NaN	NaN	NaN	NaN	NaN	NaN	NaN	NaN	NaN	NaN	NaN	NaN	NaN	NaN	NaN	NaN	NaN	NaN	NaN	NaN	NaN	NaN	NaN	NaN	NaN	NaN	NaN	NaN	NaN	NaN	NaN	NaN	NaN	NaN	NaN	NaN	NaN	NaN	NaN	NaN	NaN	NaN	NaN	65.000	311.000	344.000	NaN	NaN	NaN	NaN	NaN	NaN	NaN	NaN	NaN
12	-9.000	NaN	NaN	NaN	NaN	NaN	NaN	NaN	NaN	NaN	NaN	NaN	NaN	NaN	NaN	NaN	NaN	NaN	NaN	NaN	NaN	NaN	NaN	NaN	NaN	NaN	NaN	NaN	NaN	NaN	NaN	NaN	NaN	NaN	NaN	NaN	NaN	NaN	NaN	NaN	NaN	NaN	NaN	NaN	NaN	NaN	NaN	NaN	NaN	NaN	NaN	NaN	NaN	NaN	NaN	NaN	NaN	NaN	NaN	NaN	NaN	NaN	NaN	NaN	NaN	NaN	NaN	NaN	NaN	NaN	NaN	NaN	NaN	NaN	NaN	NaN	NaN	NaN	NaN	NaN	NaN	NaN	NaN	NaN	NaN	NaN	NaN	NaN	NaN	NaN	NaN	NaN	NaN	NaN	NaN	NaN	66.000	311.000	344.000	NaN	NaN	NaN	NaN	NaN	NaN	NaN	NaN	NaN
13	-8.000	NaN	NaN	NaN	NaN	NaN	NaN	NaN	NaN	NaN	NaN	NaN	NaN	NaN	NaN	NaN	NaN	NaN	NaN	NaN	NaN	NaN	NaN	NaN	NaN	NaN	NaN	NaN	NaN	NaN	NaN	NaN	NaN	NaN	NaN	NaN	NaN	NaN	NaN	NaN	NaN	NaN	NaN	NaN	NaN	NaN	NaN	NaN	NaN	NaN	NaN	NaN	NaN	NaN	NaN	NaN	NaN	NaN	NaN	NaN	NaN	NaN	NaN	NaN	NaN	NaN	NaN	NaN	NaN	NaN	NaN	NaN	NaN	NaN	NaN	NaN	NaN	NaN	NaN	NaN	NaN	NaN	NaN	NaN	NaN	NaN	NaN	NaN	NaN	NaN	NaN	NaN	NaN	NaN	NaN	NaN	67.000	311.000	344.000	NaN	NaN	NaN	NaN	NaN	NaN	NaN	NaN	NaN
14	-7.000	NaN	NaN	NaN	NaN	NaN	NaN	NaN	NaN	NaN	NaN	NaN	NaN	NaN	NaN	NaN	NaN	NaN	NaN	NaN	NaN	NaN	NaN	NaN	NaN	NaN	NaN	NaN	NaN	NaN	NaN	NaN	NaN	NaN	NaN	NaN	NaN	NaN	NaN	NaN	NaN	NaN	NaN	NaN	NaN	NaN	NaN	NaN	NaN	NaN	NaN	NaN	NaN	NaN	NaN	NaN	NaN	NaN	NaN	NaN	NaN	NaN	NaN	NaN	NaN	NaN	NaN	NaN	NaN	NaN	NaN	NaN	NaN	NaN	NaN	NaN	NaN	NaN	NaN	NaN	NaN	NaN	NaN	NaN	NaN	NaN	NaN	NaN	NaN	NaN	NaN	NaN	NaN	NaN	NaN	NaN	68.000	311.000	344.000	NaN	NaN	NaN	NaN	NaN	NaN	NaN	NaN	NaN
15	-6.000	NaN	NaN	NaN	NaN	NaN	NaN	NaN	NaN	NaN	NaN	NaN	NaN	NaN	NaN	NaN	NaN	NaN	NaN	NaN	NaN	NaN	NaN	NaN	NaN	NaN	NaN	NaN	NaN	NaN	NaN	NaN	NaN	NaN	NaN	NaN	NaN	NaN	NaN	NaN	NaN	NaN	NaN	NaN	NaN	NaN	NaN	NaN	NaN	NaN	NaN	NaN	NaN	NaN	NaN	NaN	NaN	NaN	NaN	NaN	NaN	NaN	NaN	NaN	NaN	NaN	NaN	NaN	NaN	NaN	NaN	NaN	NaN	NaN	NaN	NaN	NaN	NaN	NaN	NaN	NaN	NaN	NaN	NaN	NaN	NaN	NaN	NaN	NaN	NaN	NaN	NaN	NaN	NaN	NaN	NaN	69.000	311.000	344.000	NaN	NaN	NaN	NaN	NaN	NaN	NaN	NaN	NaN
16	-5.000	NaN	NaN	NaN	NaN	NaN	NaN	NaN	NaN	NaN	NaN	NaN	NaN	NaN	NaN	NaN	NaN	NaN	NaN	NaN	NaN	NaN	NaN	NaN	NaN	NaN	NaN	NaN	NaN	NaN	NaN	NaN	NaN	NaN	NaN	NaN	NaN	NaN	NaN	NaN	NaN	NaN	NaN	NaN	NaN	NaN	NaN	NaN	NaN	NaN	NaN	NaN	NaN	NaN	NaN	NaN	NaN	NaN	NaN	NaN	NaN	NaN	NaN	NaN	NaN	NaN	NaN	NaN	NaN	NaN	NaN	NaN	NaN	NaN	NaN	NaN	NaN	NaN	NaN	NaN	NaN	NaN	NaN	NaN	NaN	NaN	NaN	NaN	NaN	NaN	NaN	NaN	NaN	NaN	NaN	NaN	70.000	312.000	344.000	NaN	NaN	NaN	NaN	NaN	NaN	NaN	NaN	NaN
17	-4.000	NaN	NaN	NaN	NaN	NaN	NaN	NaN	NaN	NaN	NaN	NaN	NaN	NaN	NaN	NaN	NaN	NaN	NaN	NaN	NaN	NaN	NaN	NaN	NaN	NaN	NaN	NaN	NaN	NaN	NaN	NaN	NaN	NaN	NaN	NaN	NaN	NaN	NaN	NaN	NaN	NaN	NaN	NaN	NaN	NaN	NaN	NaN	NaN	NaN	NaN	NaN	NaN	NaN	NaN	NaN	NaN	NaN	NaN	NaN	NaN	NaN	NaN	NaN	NaN	NaN	NaN	NaN	NaN	NaN	NaN	NaN	NaN	NaN	NaN	NaN	NaN	NaN	NaN	NaN	NaN	NaN	NaN	NaN	NaN	NaN	NaN	NaN	NaN	NaN	NaN	NaN	NaN	NaN	NaN	NaN	71.000	312.000	344.000	NaN	NaN	NaN	NaN	NaN	NaN	NaN	NaN	NaN
18	-3.000	NaN	NaN	NaN	NaN	NaN	NaN	NaN	NaN	NaN	NaN	NaN	NaN	NaN	NaN	NaN	NaN	NaN	NaN	NaN	NaN	NaN	NaN	NaN	NaN	NaN	NaN	NaN	NaN	NaN	NaN	NaN	NaN	NaN	NaN	NaN	NaN	NaN	NaN	NaN	NaN	NaN	NaN	NaN	NaN	NaN	NaN	NaN	NaN	NaN	NaN	NaN	NaN	NaN	NaN	NaN	NaN	NaN	NaN	NaN	NaN	NaN	NaN	NaN	NaN	NaN	NaN	NaN	NaN	NaN	NaN	NaN	NaN	NaN	NaN	NaN	NaN	NaN	NaN	NaN	NaN	NaN	NaN	NaN	NaN	NaN	NaN	NaN	NaN	NaN	NaN	NaN	NaN	NaN	NaN	NaN	72.000	313.000	344.000	NaN	NaN	NaN	NaN	NaN	NaN	NaN	NaN	NaN
19	-2.000	NaN	NaN	NaN	NaN	NaN	NaN	NaN	NaN	NaN	NaN	NaN	NaN	NaN	NaN	NaN	NaN	NaN	NaN	NaN	NaN	NaN	NaN	NaN	NaN	NaN	NaN	NaN	NaN	NaN	NaN	NaN	NaN	NaN	NaN	NaN	NaN	NaN	NaN	NaN	NaN	NaN	NaN	NaN	NaN	NaN	NaN	NaN	NaN	NaN	NaN	NaN	NaN	NaN	NaN	NaN	NaN	NaN	NaN	NaN	NaN	NaN	NaN	NaN	NaN	NaN	NaN	NaN	NaN	NaN	NaN	NaN	NaN	NaN	NaN	NaN	NaN	NaN	NaN	NaN	NaN	NaN	NaN	NaN	NaN	NaN	NaN	NaN	NaN	NaN	NaN	NaN	NaN	NaN	NaN	NaN	73.000	315.000	344.000	NaN	NaN	NaN	NaN	NaN	NaN	NaN	NaN	NaN
20	-1.000	NaN	NaN	NaN	NaN	NaN	NaN	NaN	NaN	NaN	NaN	NaN	NaN	NaN	NaN	NaN	NaN	NaN	NaN	NaN	NaN	NaN	NaN	NaN	NaN	NaN	NaN	NaN	NaN	NaN	NaN	NaN	NaN	NaN	NaN	NaN	NaN	NaN	NaN	NaN	NaN	NaN	NaN	NaN	NaN	NaN	NaN	NaN	NaN	NaN	NaN	NaN	NaN	NaN	NaN	NaN	NaN	NaN	NaN	NaN	NaN	NaN	NaN	NaN	NaN	NaN	NaN	NaN	NaN	NaN	NaN	NaN	NaN	NaN	NaN	NaN	NaN	NaN	NaN	NaN	NaN	NaN	NaN	NaN	NaN	NaN	NaN	NaN	NaN	NaN	NaN	NaN	NaN	NaN	NaN	NaN	74.000	318.000	344.000	NaN	NaN	NaN	NaN	NaN	NaN	NaN	NaN	NaN
21	0.000	17.355	6.825	20.540	5.850	4.134	3.331	0.034	0.139	NaN	NaN	NaN	0.000	13.065	13.390	5.915	19.565	6.047	9.447	9.110	55.094	NaN	NaN	NaN	0.000	25.415	17.810	32.370	20.930	9.836	7.623	7.098	69.822	NaN	NaN	NaN	0.000	13.780	19.565	12.025	23.075	9.976	3.924	3.922	39.128	NaN	NaN	NaN	0.000	19.500	21.190	20.345	23.075	10.446	2.066	1.956	20.428	NaN	NaN	NaN	0.000	16.380	20.280	16.185	24.830	9.729	4.554	4.481	43.598	NaN	NaN	NaN	0.000	12.285	18.460	7.150	26.000	9.888	9.122	9.090	89.874	NaN	NaN	NaN	0.000	17.875	21.450	18.850	27.755	10.680	6.380	6.234	66.578	NaN	NaN	NaN	75.000	20.930	22.685	21.125	22.815	10.963	0.234	0.190	2.083	0.190	NaN	NaN
22	1.000	17.290	6.825	20.540	5.850	4.215	3.393	-0.020	-0.085	-0.054	NaN	-0.062	1.000	13.065	13.390	5.850	19.565	6.020	9.497	9.144	55.048	0.034	0.049	NaN	1.000	25.350	17.745	32.500	20.995	9.698	7.854	7.341	71.191	0.242	0.145	-0.086	1.000	13.715	19.630	11.960	23.205	10.007	3.983	3.978	39.812	0.056	0.145	0.087	1.000	19.630	21.450	20.280	23.075	10.652	1.750	1.684	17.935	-0.272	-0.024	0.290	1.000	16.315	20.410	16.120	24.895	9.807	4.489	4.414	43.285	-0.067	0.068	0.133	1.000	12.285	18.460	7.020	26.065	9.837	9.250	9.219	90.690	0.129	0.127	NaN	1.000	17.875	21.320	18.850	27.690	10.485	6.444	6.297	66.028	0.063	-0.064	-0.129	76.000	20.995	22.750	21.190	22.880	10.827	0.234	0.192	2.083	0.002	0.090	0.090
23	2.000	17.420	6.825	20.540	5.850	4.162	3.269	0.164	0.684	0.184	NaN	0.124	2.000	12.935	13.455	5.785	19.630	6.106	9.447	9.099	55.559	-0.046	0.092	0.141	2.000	25.350	17.745	32.630	21.060	9.744	7.999	7.492	73.000	0.151	0.145	NaN	2.000	13.715	19.760	11.830	23.465	10.090	4.157	4.156	41.937	0.178	0.291	0.116	2.000	19.565	21.320	20.280	23.140	10.523	1.955	1.885	19.836	0.201	0.060	-0.145	2.000	16.315	20.280	16.120	25.025	9.666	4.749	4.670	45.140	0.256	0.130	-0.130	2.000	12.285	18.460	7.020	26.195	9.796	9.357	9.324	91.336	0.105	0.107	NaN	2.000	17.810	21.320	18.850	27.755	10.485	6.518	6.358	66.666	0.061	0.064	-0.010	77.000	21.060	22.945	21.255	23.010	10.720	0.206	0.136	1.453	-0.057	0.103	0.123
24	3.000	17.290	6.825	20.540	5.850	4.054	3.393	0.052	0.211	-0.112	NaN	-0.125	3.000	12.870	13.520	5.850	19.630	6.192	9.307	9.022	55.863	-0.077	-0.049	0.092	3.000	25.155	17.680	32.695	21.125	9.699	8.290	7.726	74.930	0.234	0.086	-0.204	3.000	13.520	20.085	11.765	23.660	10.553	3.983	3.981	42.018	-0.175	0.204	0.378	3.000	19.500	21.060	20.345	23.140	10.394	2.245	2.158	22.431	0.273	0.024	-0.265	3.000	16.250	20.345	16.120	25.155	9.856	4.812	4.723	46.551	0.053	0.130	0.067	3.000	12.285	18.590	7.020	26.195	9.959	9.250	9.236	91.982	-0.088	NaN	0.107	3.000	17.745	21.255	18.850	27.755	10.550	6.593	6.420	67.727	0.061	NaN	-0.075	78.000	21.125	22.945	21.320	23.075	10.560	0.234	0.199	2.100	0.063	0.090	0.054
25	4.000	17.420	6.825	20.540	5.850	3.878	3.269	0.216	0.837	0.164	NaN	0.124	4.000	12.805	13.520	5.785	19.630	6.251	9.307	9.063	56.657	0.041	0.049	0.049	4.000	25.090	17.615	32.760	21.190	9.746	8.462	7.895	76.946	0.170	0.086	-0.086	4.000	13.585	20.020	11.570	23.855	10.552	4.332	4.331	45.706	0.350	0.263	-0.088	4.000	19.565	20.930	20.280	23.205	10.409	2.385	2.344	24.395	0.186	0.043	-0.105	4.000	16.315	20.605	16.120	25.155	10.211	4.554	4.499	45.938	-0.224	NaN	0.257	4.000	12.220	18.720	7.020	26.325	10.166	9.213	9.203	93.563	-0.032	0.107	0.144	4.000	17.745	21.125	18.850	27.755	10.546	6.721	6.558	69.167	0.139	NaN	-0.128	79.000	21.125	22.750	21.385	22.815	10.583	0.268	0.170	1.804	-0.028	3.408E-15	-0.047
26	5.000	17.290	6.890	20.540	5.850	3.831	3.412	0.179	0.684	-0.037	NaN	-0.144	5.000	12.740	13.585	5.850	19.630	6.282	9.166	8.937	56.142	-0.126	-0.049	0.092	5.000	24.700	17.485	32.890	21.190	9.428	8.989	8.298	78.230	0.403	0.118	-0.409	5.000	13.585	19.955	11.440	24.115	10.465	4.680	4.680	48.976	0.349	0.291	-0.058	5.000	19.435	20.670	20.280	23.205	10.143	2.672	2.616	26.529	0.272	NaN	-0.288	5.000	16.380	20.865	16.120	25.285	10.442	4.428	4.394	45.884	-0.105	0.130	0.256	5.000	12.155	18.655	6.890	26.455	10.114	9.411	9.396	95.037	0.193	0.180	-0.018	5.000	17.680	21.060	18.850	27.690	10.481	6.732	6.554	68.699	-0.004	-0.064	-0.075	80.000	21.060	22.815	21.255	22.945	10.787	0.234	0.201	2.167	0.030	-0.036	-0.018
27	6.000	17.355	6.955	20.540	5.850	3.741	3.371	0.652	2.438	0.473	NaN	0.040	6.000	12.740	13.585	5.785	19.630	5.910	9.215	9.035	53.396	0.099	0.049	NaN	6.000	24.505	17.420	32.955	21.190	9.469	9.253	8.608	81.509	0.310	0.059	-0.205	6.000	13.650	19.825	11.310	24.310	10.092	5.059	5.053	50.992	0.373	0.233	-0.145	6.000	19.435	20.670	20.345	23.205	10.131	2.693	2.645	26.795	0.029	0.022	NaN	6.000	16.380	20.735	16.055	25.480	10.185	4.756	4.741	48.292	0.347	0.199	-0.130	6.000	12.090	18.655	6.825	26.520	9.868	9.465	9.458	93.339	0.062	0.090	0.036	6.000	17.680	21.190	18.850	27.755	10.532	6.668	6.542	68.901	-0.012	0.064	0.128	81.000	20.930	22.880	21.255	23.075	10.701	0.379	0.315	3.367	0.114	0.067	-0.078
28	7.000	17.355	6.955	20.475	5.850	3.668	3.310	0.709	2.603	0.058	-0.061	NaN	7.000	12.610	13.585	5.915	19.500	5.998	8.934	8.752	52.500	-0.283	-0.183	0.097	7.000	24.440	17.420	33.085	21.255	9.515	9.457	8.774	83.490	0.166	0.145	-0.059	7.000	13.650	19.760	11.180	24.440	10.065	5.292	5.282	53.167	0.230	0.176	-0.057	7.000	19.630	20.995	20.280	23.140	10.558	2.241	2.225	23.491	-0.420	-0.081	0.368	7.000	16.380	20.930	16.120	25.545	10.433	4.622	4.607	48.068	-0.134	0.061	0.195	7.000	11.960	18.720	6.825	26.585	10.012	9.393	9.383	93.943	-0.075	0.054	0.125	7.000	17.615	21.125	18.850	27.755	10.532	6.744	6.606	69.573	0.064	NaN	-0.076	82.000	20.800	22.880	21.320	23.270	10.652	0.650	0.566	6.033	0.252	0.169	-0.104
29	8.000	17.225	7.020	20.475	5.850	3.613	3.454	0.690	2.493	-0.019	NaN	-0.144	8.000	12.740	13.455	5.980	19.370	5.765	8.982	8.804	50.751	0.052	-0.135	-0.183	8.000	24.245	17.420	33.215	21.385	9.425	9.807	9.057	85.366	0.283	0.171	-0.178	8.000	13.715	19.695	11.050	24.635	9.952	5.613	5.596	55.694	0.314	0.233	-0.088	8.000	19.565	20.995	20.280	23.140	10.558	2.261	2.236	23.609	0.011	NaN	-0.021	8.000	16.315	20.930	16.120	25.610	10.433	4.684	4.663	48.647	0.055	0.065	0.003	8.000	12.025	18.655	6.825	26.585	9.883	9.483	9.476	93.660	0.093	NaN	-0.090	8.000	17.550	21.125	18.850	27.690	10.532	6.692	6.540	68.876	-0.066	-0.064	-0.013	83.000	20.605	22.815	21.255	23.335	10.490	0.832	0.730	7.656	0.163	-0.010	-0.193
30	9.000	17.225	7.020	20.475	5.850	3.646	3.454	0.510	1.859	-0.180	NaN	NaN	9.000	12.480	13.520	5.980	19.370	6.194	8.745	8.492	52.601	-0.312	NaN	0.237	9.000	24.635	17.550	33.345	21.385	9.654	9.517	8.803	84.986	-0.254	0.119	0.409	9.000	13.520	19.955	10.920	24.895	10.351	5.582	5.577	57.730	-0.019	0.291	0.321	9.000	19.500	20.800	20.280	23.140	10.324	2.467	2.431	25.097	0.195	NaN	-0.206	9.000	16.250	21.060	16.120	25.675	10.601	4.617	4.577	48.516	-0.086	0.065	0.132	9.000	11.830	18.915	6.825	26.715	10.323	9.268	9.249	95.477	-0.227	0.109	0.324	9.000	17.485	21.125	18.850	27.755	10.540	6.769	6.565	69.193	0.025	0.064	-0.013	84.000	20.605	22.880	21.320	23.530	10.525	0.966	0.871	9.172	0.142	0.179	0.044
31	10.000	17.225	7.020	20.540	5.850	3.623	3.515	0.619	2.243	0.109	0.061	NaN	10.000	12.415	13.585	6.045	19.370	6.168	8.605	8.376	51.663	-0.116	-0.048	0.092	10.000	24.700	17.550	33.345	21.450	9.790	9.484	8.855	86.689	0.051	0.027	0.059	10.000	13.520	19.890	10.855	25.025	10.237	5.785	5.779	59.163	0.202	0.145	-0.058	10.000	19.435	20.605	20.345	23.205	10.141	2.755	2.712	27.505	0.281	0.083	-0.206	10.000	16.250	21.125	16.120	25.805	10.645	4.682	4.649	49.483	0.072	0.130	0.065	10.000	11.570	19.175	6.825	26.780	10.609	8.964	8.941	94.860	-0.308	0.055	0.358	10.000	17.420	21.125	18.850	27.755	10.537	6.782	6.573	69.256	0.008	NaN	-0.014	85.000	20.410	22.750	21.320	23.725	10.356	1.334	1.243	12.869	0.371	0.143	-0.228
32	11.000	17.225	7.085	20.540	5.850	3.741	3.538	0.762	2.852	0.143	NaN	-0.023	11.000	12.415	13.650	6.045	19.370	6.049	8.561	8.318	50.311	-0.058	NaN	0.043	11.000	24.700	17.550	33.475	21.515	9.699	9.629	9.056	87.834	0.201	0.145	NaN	11.000	13.455	20.085	10.855	25.025	10.237	5.582	5.575	57.071	-0.204	NaN	0.203	11.000	19.305	20.475	20.345	23.270	9.810	2.982	2.925	28.692	0.213	0.061	-0.167	11.000	16.250	21.450	16.120	25.935	10.764	4.487	4.460	48.004	-0.189	0.130	0.325	11.000	11.440	19.305	6.825	26.780	10.595	8.785	8.754	92.747	-0.188	NaN	0.179	11.000	17.420	21.450	18.850	27.755	10.665	6.465	6.258	66.747	-0.314	NaN	0.317	86.000	20.410	22.750	21.515	23.985	10.286	1.657	1.546	15.903	0.303	0.324	NaN
33	12.000	17.160	7.020	20.540	5.850	3.890	3.577	0.589	2.290	-0.174	NaN	-0.040	12.000	12.610	13.650	5.980	19.370	5.904	8.756	8.548	50.463	0.230	0.049	-0.148	12.000	24.830	17.615	33.475	21.515	9.746	9.484	8.932	87.052	-0.124	NaN	0.145	12.000	13.455	20.150	10.920	25.090	10.265	5.552	5.549	56.957	-0.026	0.028	0.058	12.000	19.175	20.540	20.410	23.335	9.781	3.056	2.940	28.755	0.015	0.086	0.007	12.000	16.250	21.385	16.120	26.065	10.645	4.682	4.649	49.483	0.189	0.130	-0.065	12.000	11.440	19.175	6.825	26.715	10.479	8.840	8.792	92.130	0.039	-0.055	-0.111	12.000	17.550	21.580	18.850	27.755	10.728	6.310	6.142	65.889	-0.117	NaN	0.154	87.000	20.475	22.815	21.645	24.245	10.491	1.848	1.751	18.370	0.205	0.284	0.091
34	13.000	17.160	7.085	20.540	5.915	3.751	3.577	0.629	2.358	0.040	-0.021	-0.021	13.000	12.740	13.650	6.045	19.370	5.765	8.806	8.651	49.868	0.103	-0.049	-0.099	13.000	24.895	17.615	33.475	21.515	9.884	9.425	8.899	87.965	-0.033	NaN	0.059	13.000	13.520	20.020	10.920	25.025	10.151	5.640	5.633	57.181	0.084	-0.058	-0.145	13.000	19.110	20.605	20.345	23.205	9.909	2.878	2.745	27.205	-0.195	-0.145	0.031	13.000	16.250	21.255	16.120	26.065	10.571	4.812	4.780	50.531	0.132	NaN	-0.130	13.000	11.505	19.110	6.760	26.780	10.400	9.019	8.983	93.423	0.191	0.089	-0.089	13.000	17.615	21.515	18.850	27.755	10.726	6.361	6.225	66.763	0.083	NaN	-0.051	88.000	20.345	22.620	21.840	24.440	10.202	2.355	2.228	22.735	0.477	0.274	-0.233
35	14.000	17.290	7.150	20.540	5.850	3.661	3.500	0.946	3.465	0.318	0.024	0.097	14.000	12.545	13.715	6.045	19.370	5.910	8.616	8.447	49.918	-0.204	NaN	0.190	14.000	24.635	17.485	33.475	21.515	9.654	9.715	9.164	88.463	0.264	NaN	-0.291	14.000	13.520	20.020	10.985	25.025	10.124	5.610	5.605	56.742	-0.028	-0.029	NaN	14.000	19.045	20.540	20.345	23.075	9.845	2.849	2.691	26.491	-0.055	-0.116	-0.087	14.000	16.250	21.255	16.185	26.130	10.562	4.875	4.839	51.110	0.059	0.064	NaN	14.000	11.570	19.045	6.760	26.780	10.270	9.109	9.079	93.242	0.096	NaN	-0.090	14.000	17.680	21.515	18.850	27.755	10.725	6.349	6.240	66.924	0.015	NaN	0.012	89.000	20.410	22.685	21.905	24.570	10.157	2.406	2.280	23.161	0.052	0.142	0.091
36	15.000	17.225	7.215	20.540	5.915	3.590	3.561	0.995	3.570	0.048	-0.024	-0.084	15.000	12.545	13.715	5.980	19.370	5.797	8.665	8.521	49.399	0.074	0.049	NaN	15.000	24.310	17.355	33.410	21.450	9.423	9.979	9.381	88.400	0.217	-0.086	-0.350	15.000	13.780	19.630	10.985	24.960	9.610	6.018	5.999	57.654	0.395	-0.058	-0.466	15.000	19.045	20.735	20.410	23.205	10.057	2.822	2.645	26.605	-0.045	0.145	0.171	15.000	16.185	21.450	16.185	26.260	10.747	4.810	4.771	51.275	-0.068	0.130	0.195	15.000	11.830	18.655	6.760	26.845	9.725	9.632	9.606	93.415	0.527	0.055	-0.468	15.000	17.680	21.450	18.850	27.755	10.661	6.413	6.319	67.363	0.079	NaN	-0.064	90.000	20.410	22.685	21.970	24.700	9.707	2.548	2.432	23.609	0.152	0.143	NaN
37	16.000	17.225	7.150	20.540	5.850	3.879	3.561	0.785	3.046	-0.209	0.024	0.024	16.000	12.610	13.715	6.045	19.370	5.873	8.665	8.441	49.576	-0.080	-0.049	-0.049	16.000	24.635	17.485	33.475	21.450	9.425	9.688	9.136	86.106	-0.245	0.059	0.350	16.000	13.780	19.630	10.985	25.025	9.538	6.076	6.071	57.904	0.072	0.058	NaN	16.000	19.435	21.190	20.410	23.140	10.334	2.180	2.079	21.484	-0.566	-0.058	0.581	16.000	16.185	21.840	16.250	26.390	10.976	4.550	4.490	49.285	-0.281	0.131	0.390	16.000	11.960	18.525	6.695	26.910	9.543	9.901	9.852	94.023	0.247	0.090	-0.179	16.000	17.745	21.190	18.850	27.755	10.205	6.657	6.558	66.924	0.239	NaN	-0.246	91.000	20.410	22.685	22.100	24.830	9.791	2.731	2.602	25.481	0.170	0.183	NaN
38	17.000	17.160	7.150	20.540	5.915	3.687	3.599	0.683	2.518	-0.102	-0.022	-0.061	17.000	12.610	13.715	6.045	19.370	5.910	8.665	8.503	50.252	0.062	NaN	NaN	17.000	24.440	17.420	33.475	21.450	9.422	9.893	9.256	87.208	0.120	NaN	-0.205	17.000	13.780	19.695	10.855	25.155	9.748	6.194	6.178	60.219	0.107	0.176	0.057	17.000	19.435	21.255	20.410	23.140	10.601	2.122	2.016	21.374	-0.063	NaN	0.058	17.000	16.250	21.385	16.185	26.520	10.700	5.135	5.094	54.503	0.603	0.131	-0.456	17.000	12.025	18.460	6.630	26.975	9.568	10.080	10.051	96.169	0.199	0.090	-0.090	17.000	17.680	20.995	18.850	27.755	10.205	6.861	6.752	68.910	0.195	NaN	-0.203	92.000	20.410	22.685	22.230	24.960	10.956	2.913	2.732	29.930	0.129	0.183	NaN
39	18.000	17.225	7.085	20.540	5.915	3.797	3.515	0.764	2.903	0.081	NaN	0.083	18.000	12.350	13.845	6.045	19.370	6.111	8.383	8.202	50.125	-0.301	NaN	0.281	18.000	24.440	17.485	33.605	21.515	9.469	10.012	9.365	88.674	0.110	0.145	0.026	18.000	13.910	19.630	10.855	25.285	9.551	6.427	6.402	61.140	0.224	0.114	-0.119	18.000	19.435	21.255	20.345	23.075	10.547	2.035	1.946	20.525	-0.070	-0.087	NaN	18.000	16.250	21.580	16.250	26.780	10.820	5.200	5.154	55.770	0.061	0.260	0.195	18.000	11.960	18.590	6.630	26.975	9.620	9.936	9.911	95.346	-0.140	NaN	0.145	18.000	17.680	20.865	18.850	27.690	10.010	6.925	6.825	68.318	0.073	-0.064	-0.128	93.000	20.280	22.555	22.295	25.025	9.785	3.188	2.999	29.347	0.267	0.091	-0.183
40	19.000	17.355	6.955	20.475	5.850	3.991	3.310	0.742	2.962	-0.022	-0.040	0.166	19.000	12.350	13.845	6.045	19.370	6.194	8.383	8.167	50.586	-0.035	NaN	NaN	19.000	24.830	17.615	33.735	21.515	9.701	9.722	9.136	88.624	-0.229	0.119	0.409	19.000	13.845	19.500	10.725	25.545	9.452	6.803	6.796	64.237	0.395	0.291	-0.086	19.000	19.500	21.255	20.410	23.140	10.472	2.093	2.007	21.019	0.061	0.087	0.028	19.000	16.185	21.775	16.315	26.780	10.976	5.007	4.931	54.118	-0.224	0.002	0.193	19.000	11.960	18.590	6.630	26.975	9.646	9.936	9.899	95.493	-0.011	NaN	NaN	19.000	17.550	20.735	18.850	27.755	9.818	7.139	6.983	68.563	0.158	0.064	-0.151	94.000	19.630	21.710	22.165	24.960	8.965	4.122	3.845	34.476	0.846	-0.131	-1.066
41	20.000	17.290	7.020	20.475	5.850	4.120	3.393	0.811	3.342	0.069	NaN	-0.083	20.000	12.285	13.910	6.045	19.370	6.134	8.292	8.042	49.331	-0.124	NaN	0.092	20.000	24.700	17.550	33.800	21.515	9.475	9.926	9.372	88.805	0.236	0.060	-0.145	20.000	13.910	19.305	10.595	25.675	9.043	7.181	7.175	64.883	0.378	0.175	-0.203	20.000	19.435	21.190	20.475	23.270	10.216	2.326	2.223	22.714	0.216	0.145	-0.087	20.000	16.185	22.100	16.315	27.040	11.095	4.942	4.873	54.063	-0.058	0.260	0.325	20.000	11.830	18.525	6.630	26.910	9.481	9.867	9.797	92.891	-0.102	-0.055	0.013	20.000	17.615	21.060	18.850	27.755	9.946	6.808	6.678	66.421	-0.305	NaN	0.331	95.000	19.435	21.385	22.165	24.960	8.598	4.498	4.196	36.077	0.350	NaN	-0.377
42	21.000	17.290	6.825	20.540	5.915	3.965	3.375	0.309	1.225	-0.502	0.045	0.053	21.000	12.480	13.845	6.045	19.370	6.345	8.481	8.320	52.791	0.278	NaN	-0.190	21.000	24.765	17.550	33.865	21.580	9.606	9.952	9.267	89.021	-0.105	0.086	0.059	21.000	13.845	19.240	10.465	25.935	9.477	7.500	7.499	71.069	0.325	0.291	-0.029	21.000	19.435	21.060	20.475	23.335	10.433	2.501	2.396	24.999	0.173	0.059	-0.118	21.000	16.315	21.385	16.185	27.300	10.793	5.916	5.862	63.274	0.990	0.263	-0.718	21.000	11.830	18.590	6.630	26.845	9.999	9.756	9.704	97.036	-0.093	-0.055	0.055	21.000	17.745	21.255	18.850	27.755	10.533	6.593	6.471	68.158	-0.208	NaN	0.214	96.000	19.240	21.125	21.970	24.765	8.197	4.550	4.077	33.420	-0.119	-0.273	-0.325
43	22.000	17.095	7.020	20.540	5.850	3.901	3.638	0.519	2.024	0.210	0.021	-0.247	22.000	12.415	13.910	6.045	19.370	6.200	8.390	8.233	51.046	-0.087	NaN	0.092	22.000	24.440	17.355	33.865	21.580	9.285	10.329	9.688	89.950	0.421	NaN	-0.376	22.000	13.975	19.110	10.400	26.130	9.102	7.878	7.873	71.660	0.374	0.203	-0.175	22.000	19.370	20.995	20.605	23.400	10.259	2.704	2.565	26.313	0.169	0.117	-0.088	22.000	16.250	21.515	16.250	27.495	10.774	5.980	5.917	63.747	0.055	0.195	0.130	22.000	11.830	18.590	6.565	27.040	9.777	9.956	9.905	96.845	0.201	0.200	NaN	22.000	17.745	21.385	18.850	27.690	10.530	6.401	6.298	66.320	-0.173	-0.064	0.128	97.000	19.110	20.995	21.905	24.635	7.942	4.589	4.101	32.571	0.024	-0.143	-0.182
44	23.000	17.095	7.085	20.540	5.850	3.901	3.660	0.583	2.273	0.064	NaN	-0.022	23.000	11.895	14.170	6.045	19.370	6.749	7.827	7.631	51.503	-0.602	NaN	0.561	23.000	24.440	17.290	33.865	21.580	9.194	10.355	9.769	89.815	0.081	NaN	-0.027	23.000	14.105	18.915	10.335	26.195	8.812	8.198	8.190	72.171	0.318	0.088	-0.233	23.000	19.370	20.930	20.605	23.530	10.131	2.878	2.759	27.953	0.194	0.117	-0.059	23.000	16.315	21.775	16.250	27.625	10.957	5.850	5.804	63.599	-0.113	0.130	0.259	23.000	11.830	18.590	6.565	26.975	9.726	9.901	9.850	95.798	-0.055	-0.055	NaN	23.000	17.745	21.645	18.785	27.495	10.725	5.942	5.844	62.674	-0.454	-0.203	0.256	98.000	18.980	20.800	21.840	24.635	7.763	4.784	4.331	33.627	0.230	-0.039	-0.234
45	24.000	17.095	7.085	20.540	5.850	4.093	3.660	0.614	2.514	0.032	NaN	NaN	24.000	11.765	14.235	6.045	19.370	6.803	7.687	7.438	50.599	-0.193	NaN	0.140	24.000	24.505	17.225	33.865	21.515	9.064	10.296	9.806	88.877	0.037	-0.027	0.032	24.000	14.105	18.785	10.270	26.455	8.518	8.575	8.575	73.038	0.384	0.262	-0.116	24.000	19.370	20.995	20.670	23.595	10.002	2.907	2.771	27.716	0.012	0.087	0.058	24.000	16.315	22.100	16.250	27.820	11.086	5.720	5.677	62.931	-0.128	0.195	0.325	24.000	11.830	18.655	6.565	26.975	9.624	9.846	9.790	94.218	-0.060	NaN	0.055	24.000	17.680	21.840	18.785	27.495	10.726	5.762	5.641	60.506	-0.202	NaN	0.179	99.000	18.980	20.735	21.840	24.570	7.713	4.784	4.351	33.563	0.020	-0.052	-0.052
46	25.000	17.030	7.085	20.605	5.915	4.273	3.762	0.323	1.382	-0.291	0.042	-0.062	25.000	12.285	13.975	6.110	19.305	6.338	8.157	7.869	49.872	0.431	-0.092	-0.564	25.000	24.635	17.225	33.995	21.580	8.928	10.324	9.867	88.100	0.062	0.145	0.118	25.000	14.040	18.785	10.140	26.585	8.519	8.721	8.719	74.276	0.144	0.174	0.029	25.000	19.890	22.100	20.605	23.595	11.017	1.657	1.595	17.576	-1.176	-0.028	1.221	25.000	16.315	22.360	16.250	27.950	11.243	5.590	5.536	62.243	-0.140	0.130	0.260	25.000	11.960	18.395	6.565	27.040	9.363	10.190	10.085	94.425	0.295	0.055	-0.289	25.000	17.745	22.035	18.785	27.495	10.793	5.558	5.433	58.643	-0.208	NaN	0.204	100.000	18.980	20.930	21.905	24.570	7.854	4.670	4.184	32.862	-0.167	0.041	0.152
47	26.000	16.965	7.020	20.540	5.850	4.258	3.762	0.379	1.614	0.056	-0.042	-0.042	26.000	12.415	13.910	6.175	19.240	6.104	8.206	7.965	48.621	0.096	-0.092	-0.141	26.000	24.375	17.095	33.995	21.580	8.788	10.614	10.134	89.059	0.266	NaN	-0.291	26.000	14.040	18.720	10.010	26.650	8.459	8.895	8.895	75.247	0.176	0.117	-0.058	26.000	19.825	21.905	20.605	23.595	10.901	1.861	1.802	19.646	0.207	NaN	-0.204	26.000	16.380	22.295	16.315	27.950	11.215	5.655	5.613	62.953	0.077	-7.471E-4	-0.066	26.000	12.025	18.330	6.565	27.105	9.238	10.335	10.249	94.682	0.164	0.055	-0.090	26.000	17.810	22.100	18.785	27.430	10.920	5.418	5.324	58.140	-0.109	-0.064	0.076	101.000	18.915	20.930	21.840	24.505	8.529	4.619	4.050	34.539	-0.134	-0.091	-0.041
48	27.000	17.030	7.020	20.540	5.915	4.513	3.680	0.374	1.690	-0.005	-0.020	0.062	27.000	12.480	13.780	6.175	19.240	5.940	8.341	7.946	47.202	-0.019	NaN	-0.134	27.000	24.700	17.225	34.060	21.645	8.897	10.351	9.985	88.843	-0.148	0.087	0.349	27.000	14.105	18.460	9.880	26.715	7.999	9.273	9.270	74.153	0.375	0.117	-0.261	27.000	19.760	21.775	20.540	23.595	10.494	1.980	1.928	20.229	0.125	-0.026	-0.145	27.000	16.315	22.750	16.315	28.015	11.426	5.265	5.211	59.547	-0.402	0.065	0.455	27.000	12.090	18.330	6.565	27.040	9.039	10.315	10.216	92.333	-0.033	-0.055	-0.035	27.000	17.875	22.295	18.785	27.430	10.855	5.215	5.129	55.681	-0.195	NaN	0.203	102.000	18.785	20.865	21.840	24.505	8.698	4.752	4.093	35.600	0.043	NaN	-0.133
49	28.000	17.030	6.955	20.475	5.850	4.761	3.618	0.225	1.069	-0.150	-0.042	0.020	28.000	12.675	13.585	6.175	19.240	5.881	8.616	8.044	47.307	0.098	NaN	-0.275	28.000	25.090	17.290	33.930	21.580	8.955	9.826	9.542	85.446	-0.443	-0.145	0.379	28.000	14.040	18.330	9.880	26.780	7.937	9.418	9.377	74.428	0.107	0.058	-0.088	28.000	19.760	21.710	20.605	23.725	10.259	2.185	2.120	21.750	0.192	0.145	-0.060	28.000	16.315	22.945	16.315	28.080	11.530	5.135	5.066	58.411	-0.146	0.065	0.195	28.000	12.155	18.265	6.630	26.975	9.020	10.315	10.167	91.712	-0.048	-0.090	-0.090	28.000	18.005	22.425	18.785	27.430	10.857	5.065	4.990	54.177	-0.139	NaN	0.148	103.000	18.655	20.670	21.840	24.505	8.624	4.985	4.291	37.003	0.198	NaN	-0.233
50	29.000	17.225	6.890	20.475	5.850	4.794	3.412	0.310	1.487	0.086	NaN	0.206	29.000	12.545	13.650	6.175	19.240	6.086	8.475	7.897	48.064	-0.147	NaN	0.141	29.000	25.090	17.290	33.735	21.515	8.905	9.622	9.340	83.169	-0.202	-0.204	NaN	29.000	14.040	18.265	9.815	26.715	7.917	9.447	9.401	74.423	0.024	-0.029	-0.058	29.000	19.695	21.710	20.540	23.725	10.240	2.185	2.113	21.640	-0.007	-0.025	-0.025	29.000	16.250	23.075	16.315	28.015	11.680	4.940	4.855	56.704	-0.211	-0.065	0.129	29.000	12.155	18.265	6.695	26.845	9.064	10.170	10.018	90.804	-0.149	-0.145	NaN	29.000	18.005	22.555	18.785	27.430	10.988	4.937	4.855	53.349	-0.135	NaN	0.128	104.000	18.980	21.125	21.905	24.570	9.320	4.519	3.918	36.517	-0.372	0.092	0.557
51	30.000	17.030	7.020	20.475	5.850	4.809	3.638	0.347	1.669	0.037	NaN	-0.226	30.000	12.610	13.650	6.175	19.305	5.859	8.567	7.950	46.581	0.053	0.043	-0.049	30.000	25.090	17.420	33.540	21.385	9.005	9.334	9.045	81.450	-0.295	-0.232	0.055	30.000	13.975	18.395	9.750	26.845	7.882	9.447	9.407	74.149	0.006	0.145	0.145	30.000	19.760	21.775	20.540	23.595	10.205	1.980	1.921	19.604	-0.192	-0.119	0.085	30.000	16.185	23.335	16.315	27.885	11.797	4.552	4.466	52.686	-0.389	-0.130	0.258	30.000	12.090	18.200	6.695	26.845	8.876	10.190	10.005	88.805	-0.014	NaN	-0.021	30.000	18.070	22.620	18.785	27.430	10.920	4.863	4.806	52.479	-0.050	NaN	0.074	105.000	18.980	21.060	22.035	24.700	9.535	4.752	4.156	39.631	0.238	0.183	-0.050
52	31.000	17.160	7.020	20.475	5.915	4.780	3.494	0.406	1.939	0.059	-0.021	0.123	31.000	12.545	13.650	6.175	19.240	5.920	8.475	7.856	46.509	-0.094	-0.043	0.049	31.000	24.960	17.420	33.280	21.125	8.905	9.108	8.756	77.977	-0.288	-0.343	-0.119	31.000	14.040	18.330	9.620	27.040	7.793	9.767	9.733	75.847	0.326	0.233	-0.087	31.000	19.760	21.775	20.475	23.465	10.205	1.835	1.782	18.189	-0.139	-0.145	NaN	31.000	16.250	23.270	16.315	27.755	11.723	4.485	4.416	51.769	-0.050	-0.130	-0.064	31.000	12.090	18.200	6.695	26.910	8.876	10.245	10.052	89.228	0.048	0.055	NaN	31.000	18.070	22.685	18.785	27.430	10.985	4.799	4.741	52.077	-0.065	NaN	0.064	106.000	19.045	21.190	22.230	24.895	9.715	4.886	4.219	40.991	0.063	0.275	0.141
53	32.000	16.900	7.020	20.475	5.915	4.887	3.742	0.217	1.060	-0.189	NaN	-0.248	32.000	12.025	13.975	6.175	19.240	6.436	7.870	7.302	46.999	-0.554	NaN	0.604	32.000	24.895	17.485	33.020	20.865	8.905	8.800	8.398	74.787	-0.358	-0.340	-0.035	32.000	14.040	18.395	9.555	27.105	7.759	9.797	9.772	75.822	0.039	0.088	0.058	32.000	19.825	21.840	20.475	23.400	10.227	1.690	1.648	16.858	-0.134	-0.060	0.085	32.000	16.185	23.465	16.380	27.755	11.851	4.294	4.204	49.825	-0.212	0.003	0.192	32.000	12.155	18.200	6.630	27.040	8.741	10.425	10.247	89.566	0.195	0.145	-0.034	32.000	18.005	22.815	18.785	27.430	11.050	4.680	4.610	50.945	-0.130	NaN	0.117	107.000	18.980	21.060	22.295	24.960	9.715	5.119	4.435	43.082	0.215	0.092	-0.141
54	33.000	16.835	7.020	20.475	5.850	4.985	3.823	0.385	1.918	0.168	0.020	-0.062	33.000	12.025	13.910	6.175	19.240	6.187	7.914	7.267	44.962	-0.035	NaN	-0.044	33.000	24.700	17.485	32.695	20.865	8.822	8.680	8.327	73.460	-0.071	-0.299	-0.180	33.000	14.105	18.330	9.620	27.105	7.458	9.855	9.838	73.376	0.066	-0.030	-0.087	33.000	19.760	21.970	20.540	23.465	10.250	1.686	1.613	16.532	-0.035	0.088	0.085	33.000	16.185	23.660	16.315	27.755	11.886	4.097	4.035	47.958	-0.169	-0.002	0.195	33.000	12.155	18.070	6.500	27.105	8.417	10.659	10.471	88.138	0.224	0.124	-0.110	33.000	18.200	23.010	18.785	27.430	11.120	4.459	4.435	49.318	-0.175	NaN	0.219	108.000	19.110	21.125	22.230	24.895	9.293	4.894	4.324	40.188	-0.110	-0.092	0.133
55	34.000	16.835	7.150	20.540	5.850	4.948	3.926	0.648	3.207	0.263	0.061	-0.043	34.000	12.220	13.845	6.175	19.240	5.755	8.102	7.441	42.825	0.174	NaN	-0.189	34.000	24.375	17.420	32.435	20.735	8.598	8.715	8.356	71.846	0.029	-0.290	-0.325	34.000	14.040	18.330	9.555	27.105	7.280	9.855	9.842	71.652	0.003	0.030	0.030	34.000	19.760	21.970	20.540	23.530	10.160	1.744	1.687	17.137	0.074	0.058	NaN	34.000	16.250	23.920	16.315	27.820	11.981	3.901	3.864	46.298	-0.171	0.065	0.261	34.000	12.090	18.070	6.500	27.235	8.233	10.735	10.524	86.651	0.053	0.111	0.034	34.000	18.200	23.335	18.785	27.430	11.322	4.137	4.118	46.619	-0.318	NaN	0.322	109.000	19.045	20.995	22.165	24.830	9.472	4.944	4.363	41.325	0.039	-0.091	-0.142
56	35.000	16.900	7.150	20.540	5.850	5.056	3.865	0.772	3.904	0.124	NaN	0.061	35.000	12.545	13.650	6.175	19.240	5.286	8.475	7.691	40.653	0.250	NaN	-0.373	35.000	24.310	17.290	32.175	20.670	8.437	8.561	8.298	70.012	-0.058	-0.265	-0.111	35.000	13.975	18.330	9.620	27.170	7.168	9.855	9.827	70.439	-0.015	0.030	0.029	35.000	19.760	21.775	20.605	23.595	9.856	2.007	1.960	19.321	0.274	0.086	-0.177	35.000	16.185	24.180	16.380	27.755	12.110	3.580	3.527	42.711	-0.337	-0.061	0.256	35.000	12.155	18.070	6.500	27.300	8.050	10.825	10.618	85.472	0.094	0.055	-0.034	35.000	18.265	23.465	18.785	27.430	11.329	3.999	3.988	45.182	-0.129	NaN	0.137	110.000	18.850	20.865	22.100	24.765	9.436	5.077	4.401	41.532	0.038	-0.092	-0.225
57	36.000	16.965	7.150	20.540	5.850	5.032	3.804	0.924	4.648	0.151	NaN	0.061	36.000	12.480	13.715	6.175	19.305	5.242	8.426	7.683	40.277	-0.008	0.043	0.092	36.000	23.985	17.160	31.785	20.605	8.204	8.527	8.282	67.942	-0.016	-0.383	-0.350	36.000	13.910	18.395	9.620	27.235	7.192	9.826	9.803	70.498	-0.024	0.058	0.087	36.000	19.695	21.645	20.670	23.595	9.744	2.180	2.120	20.660	0.160	0.029	-0.145	36.000	16.250	24.245	16.315	27.755	12.153	3.511	3.485	42.356	-0.042	-0.001	0.066	36.000	12.090	18.070	6.435	27.365	8.006	10.880	10.678	85.489	0.060	0.089	0.034	36.000	18.135	23.790	18.785	27.430	11.653	3.698	3.671	42.774	-0.318	NaN	0.297	111.000	19.175	21.255	22.100	24.895	9.994	4.670	4.126	41.240	-0.275	0.101	0.508
58	37.000	16.965	7.215	20.540	5.915	4.955	3.804	1.015	5.028	0.091	-0.022	-0.022	37.000	12.610	13.650	6.175	19.240	4.975	8.524	7.817	38.891	0.135	-0.043	-0.141	37.000	23.660	17.030	31.460	20.410	7.970	8.501	8.238	65.657	-0.044	-0.376	-0.350	37.000	13.845	18.460	9.620	27.235	7.216	9.739	9.722	70.156	-0.081	NaN	0.087	37.000	19.695	21.645	20.670	23.660	9.774	2.238	2.190	21.404	0.070	0.059	NaN	37.000	16.250	24.180	16.315	27.690	12.076	3.511	3.489	42.136	0.004	-0.065	-0.065	37.000	12.090	18.005	6.435	27.300	7.870	10.880	10.692	84.149	0.014	-0.056	-0.056	37.000	18.070	23.920	18.785	27.430	11.787	3.582	3.547	41.806	-0.124	NaN	0.114	112.000	19.175	21.320	22.100	24.960	10.071	4.670	4.137	41.667	0.011	0.051	0.051
59	38.000	17.030	7.150	20.540	5.915	5.016	3.721	1.005	5.040	-0.010	NaN	0.083	38.000	12.675	13.650	6.175	19.240	4.913	8.573	7.893	38.777	0.075	NaN	-0.049	38.000	23.595	16.965	31.265	20.280	7.879	8.356	8.099	63.806	-0.140	-0.231	-0.085	38.000	13.845	18.330	9.685	27.235	7.103	9.829	9.797	69.590	0.075	-0.028	-0.118	38.000	19.760	21.710	20.735	23.725	9.853	2.238	2.192	21.598	0.002	0.087	0.087	38.000	16.315	24.245	16.250	27.625	12.135	3.381	3.373	40.932	-0.116	-0.064	0.064	38.000	12.155	18.005	6.435	27.300	7.827	10.914	10.747	84.120	0.055	NaN	-0.034	38.000	18.005	23.985	18.850	27.430	11.848	3.547	3.486	41.304	-0.061	0.015	0.048	113.000	19.175	21.255	22.100	24.960	9.956	4.720	4.220	42.018	0.083	NaN	-0.051
60	39.000	16.965	7.085	20.540	5.850	5.142	3.782	1.053	5.412	0.048	0.021	-0.040	39.000	12.610	13.650	6.175	19.240	4.831	8.524	7.801	37.691	-0.092	NaN	0.049	39.000	23.465	16.835	31.330	20.280	7.761	8.586	8.372	64.976	0.273	0.060	-0.171	39.000	13.845	18.265	9.620	27.235	6.926	9.915	9.891	68.504	0.094	0.028	-0.059	39.000	19.695	21.645	20.735	23.725	9.743	2.326	2.276	22.173	0.084	NaN	-0.087	39.000	16.315	24.375	16.250	27.495	12.189	3.121	3.116	37.983	-0.257	-0.130	0.130	39.000	12.155	17.940	6.500	27.235	7.644	10.880	10.707	81.838	-0.040	-0.089	-0.056	39.000	17.940	23.920	18.785	27.430	11.722	3.610	3.555	41.671	0.069	-0.015	-0.078	114.000	19.110	21.190	22.100	25.025	9.867	4.863	4.336	42.778	0.115	0.051	-0.091
61	40.000	17.030	6.890	20.540	5.915	5.399	3.643	0.848	4.576	-0.205	-0.017	0.115	40.000	12.480	13.650	6.175	19.240	4.937	8.426	7.605	37.548	-0.197	NaN	0.097	40.000	23.595	16.835	31.070	20.280	7.828	8.231	8.085	63.291	-0.287	-0.236	0.118	40.000	13.910	18.135	9.620	27.300	6.724	10.119	10.089	67.837	0.198	0.059	-0.145	40.000	19.825	21.905	20.735	23.855	9.965	2.152	2.120	21.125	-0.156	0.118	0.291	40.000	16.185	24.505	16.250	27.365	12.264	2.861	2.844	34.882	-0.272	-0.130	0.127	40.000	12.220	17.940	6.500	27.300	7.552	10.969	10.800	81.559	0.093	0.055	-0.034	40.000	17.940	24.180	18.785	27.495	11.916	3.421	3.360	40.036	-0.195	0.063	0.252	115.000	19.045	21.125	22.165	25.025	9.816	4.994	4.442	43.602	0.107	0.041	-0.091
62	41.000	16.965	6.955	20.540	5.850	5.340	3.742	0.885	4.728	0.038	0.019	-0.081	41.000	12.415	13.715	6.240	19.240	5.080	8.286	7.480	38.004	-0.124	-0.048	0.092	41.000	23.465	16.835	31.070	20.280	7.670	8.349	8.166	62.636	0.081	NaN	-0.118	41.000	13.975	17.940	9.555	27.430	6.555	10.469	10.422	68.318	0.334	0.145	-0.204	41.000	19.955	22.100	20.735	24.115	10.170	2.161	2.149	21.856	0.029	0.242	0.229	41.000	16.315	24.310	16.250	27.495	12.064	3.186	3.180	38.363	0.336	0.130	-0.198	41.000	12.220	17.940	6.435	27.300	7.595	11.003	10.831	82.261	0.031	0.034	NaN	41.000	18.005	24.310	18.785	27.430	12.046	3.216	3.161	38.076	-0.199	-0.063	0.142	116.000	18.915	21.060	22.230	25.155	9.739	5.269	4.659	45.377	0.217	0.142	-0.132
63	42.000	17.095	7.020	20.540	5.915	5.265	3.618	1.105	5.818	0.220	-0.020	0.104	42.000	12.415	13.715	6.175	19.240	4.894	8.334	7.582	37.104	0.102	0.049	NaN	42.000	23.140	16.835	31.005	20.280	7.566	8.586	8.356	63.219	0.190	-0.060	-0.298	42.000	13.910	17.940	9.555	27.495	6.490	10.501	10.463	67.904	0.040	0.059	0.027	42.000	19.955	22.035	20.865	24.180	10.161	2.330	2.314	23.516	0.165	0.111	-0.060	42.000	16.185	24.505	16.250	27.625	12.254	3.121	3.107	38.067	-0.073	0.130	0.192	42.000	12.155	17.940	6.500	27.300	7.509	10.936	10.770	80.867	-0.061	-0.034	0.034	42.000	18.005	24.245	18.785	27.430	11.995	3.279	3.235	38.802	0.074	NaN	-0.063	117.000	18.785	20.930	22.295	25.090	9.511	5.443	4.717	44.870	0.058	-0.008	-0.183
64	43.000	17.030	7.085	20.540	5.915	5.332	3.700	1.255	6.692	0.150	NaN	-0.082	43.000	12.350	13.780	6.175	19.240	4.750	8.243	7.483	35.549	-0.099	NaN	0.092	43.000	22.880	16.770	31.200	20.215	7.398	9.005	8.754	64.757	0.398	0.155	-0.265	43.000	13.715	18.330	9.425	27.625	6.718	10.237	10.218	68.644	-0.245	0.173	0.436	43.000	20.345	23.270	20.865	24.245	11.389	1.105	1.087	12.375	-1.228	0.057	1.273	43.000	16.315	24.700	16.315	27.820	12.299	3.120	3.116	38.329	0.010	0.195	0.195	43.000	12.090	18.005	6.435	27.300	7.375	10.880	10.734	79.160	-0.035	0.034	0.089	43.000	18.005	24.180	18.785	27.430	11.817	3.342	3.309	39.098	0.074	NaN	-0.063	118.000	18.720	20.800	22.425	25.155	9.414	5.718	4.888	46.019	0.171	0.134	-0.141
65	44.000	17.095	7.085	20.540	5.915	5.460	3.638	1.129	6.164	-0.126	NaN	0.062	44.000	12.480	13.715	6.240	19.240	4.824	8.334	7.394	35.667	-0.090	-0.049	-0.140	44.000	23.205	16.965	31.265	20.215	7.489	8.691	8.425	63.088	-0.329	0.060	0.374	44.000	13.845	18.070	9.425	27.690	6.443	10.587	10.523	67.803	0.305	0.059	-0.291	44.000	20.280	23.530	20.735	24.505	11.419	1.076	1.062	12.130	-0.024	0.181	0.208	44.000	16.315	24.960	16.380	28.015	12.444	3.056	3.044	37.873	-0.073	0.196	0.260	44.000	12.155	18.005	6.370	27.365	7.407	11.003	10.809	80.060	0.075	0.089	-0.034	44.000	18.070	24.375	18.785	27.430	11.865	3.138	3.101	36.791	-0.208	NaN	0.205	119.000	18.850	20.735	22.490	25.220	9.421	5.776	5.123	48.258	0.235	0.091	0.031
66	45.000	17.030	7.085	20.540	5.850	5.397	3.721	1.150	6.207	0.021	0.022	-0.061	45.000	12.545	13.650	6.175	19.240	4.761	8.475	7.548	35.938	0.155	0.049	-0.092	45.000	23.270	17.030	31.395	20.215	7.618	8.727	8.419	64.136	-0.006	0.121	0.084	45.000	13.845	18.135	9.425	27.690	6.555	10.528	10.478	68.686	-0.045	NaN	0.059	45.000	20.280	23.530	20.670	24.635	11.482	1.172	1.169	13.427	0.107	0.101	NaN	45.000	16.250	24.830	16.445	28.080	12.383	3.256	3.227	39.960	0.183	0.069	-0.134	45.000	12.220	18.005	6.370	27.365	7.411	11.038	10.877	80.613	0.068	NaN	-0.034	45.000	18.200	24.765	18.850	27.495	12.329	2.806	2.775	34.214	-0.326	0.078	0.410	120.000	18.785	20.475	22.425	25.220	9.153	5.980	5.374	49.187	0.251	-0.040	-0.246
67	46.000	17.095	7.085	20.605	5.915	5.460	3.700	1.170	6.388	0.020	0.041	0.062	46.000	12.675	13.650	6.175	19.240	4.556	8.573	7.662	34.907	0.113	NaN	-0.099	46.000	23.075	16.965	31.460	20.280	7.436	9.017	8.713	64.795	0.295	0.084	-0.205	46.000	13.780	18.265	9.425	27.690	6.611	10.383	10.338	68.348	-0.140	NaN	0.145	46.000	20.345	23.790	20.670	24.895	11.705	1.152	1.152	13.482	-0.018	0.249	0.268	46.000	16.250	25.025	16.510	28.275	12.509	3.260	3.225	40.340	-0.002	0.200	0.194	46.000	12.220	18.005	6.305	27.495	7.320	11.182	11.018	80.651	0.142	0.145	NaN	46.000	18.135	24.505	18.850	27.430	12.005	3.011	2.976	35.727	0.201	-0.063	-0.268	NaN	NaN	NaN	NaN	NaN	NaN	NaN	NaN	NaN	NaN	NaN	NaN
68	47.000	16.965	7.085	20.605	5.915	5.462	3.823	1.083	5.915	-0.087	NaN	-0.124	47.000	12.610	13.650	6.240	19.240	4.619	8.475	7.522	34.746	-0.139	-0.049	0.049	47.000	23.140	16.900	31.460	20.215	7.450	8.956	8.688	64.731	-0.025	-0.024	0.036	47.000	13.780	18.135	9.425	27.755	6.499	10.560	10.496	68.213	0.158	0.059	-0.118	47.000	20.280	23.660	20.670	25.025	11.562	1.420	1.420	16.414	0.268	0.125	-0.143	47.000	16.315	24.960	16.510	28.340	12.439	3.386	3.361	41.811	0.136	0.065	-0.061	47.000	12.220	17.940	6.240	27.560	7.271	11.327	11.147	81.052	0.128	0.090	-0.055	47.000	18.135	24.635	18.850	27.495	12.135	2.948	2.911	35.321	-0.065	0.063	0.126	NaN	NaN	NaN	NaN	NaN	NaN	NaN	NaN	NaN	NaN	NaN	NaN
69	48.000	17.160	7.020	20.540	5.850	5.460	3.577	1.210	6.608	0.127	-0.040	0.206	48.000	12.675	13.585	6.175	19.240	4.556	8.616	7.677	34.979	0.155	0.049	-0.092	48.000	23.075	16.900	31.200	20.215	7.436	8.775	8.504	63.240	-0.184	-0.241	-0.060	48.000	13.715	18.265	9.490	27.625	6.700	10.269	10.213	68.428	-0.283	-0.145	0.145	48.000	20.280	23.595	20.670	25.090	11.562	1.545	1.545	17.859	0.125	0.063	-0.063	48.000	16.250	24.830	16.510	28.405	12.379	3.584	3.549	43.932	0.188	0.065	-0.134	48.000	12.220	18.005	6.240	27.625	7.368	11.327	11.170	82.303	0.023	0.055	0.055	48.000	18.070	24.375	18.850	27.495	11.935	3.216	3.173	37.873	0.263	NaN	-0.268	NaN	NaN	NaN	NaN	NaN	NaN	NaN	NaN	NaN	NaN	NaN	NaN
70	49.000	17.160	6.955	20.540	5.850	5.525	3.556	1.145	6.325	-0.065	NaN	0.020	49.000	12.610	13.585	6.240	19.240	4.619	8.518	7.538	34.818	-0.140	-0.049	0.049	49.000	23.010	16.835	31.265	20.215	7.345	8.920	8.652	63.548	0.147	0.060	-0.085	49.000	13.975	18.005	9.685	27.430	6.345	10.355	10.316	65.458	0.103	-0.258	-0.344	49.000	20.280	23.595	20.800	25.350	11.562	1.830	1.830	21.163	0.286	0.286	NaN	49.000	16.185	24.895	16.575	28.470	12.448	3.596	3.537	44.029	-0.012	0.072	0.058	49.000	12.220	18.135	6.240	27.560	7.466	11.162	11.043	82.451	-0.127	-0.055	0.110	49.000	18.070	24.310	18.850	27.560	11.870	3.342	3.303	39.208	0.130	0.063	-0.063	NaN	NaN	NaN	NaN	NaN	NaN	NaN	NaN	NaN	NaN	NaN	NaN
71	50.000	17.290	6.955	20.540	5.915	5.336	3.412	1.197	6.388	0.052	-0.020	0.124	50.000	12.415	13.650	6.240	19.240	4.813	8.329	7.507	36.128	-0.031	NaN	0.188	50.000	23.010	16.770	31.200	20.215	7.475	8.885	8.619	64.427	-0.033	-0.060	-0.025	50.000	13.975	17.745	10.010	26.975	6.257	10.046	9.991	62.509	-0.325	-0.546	-0.239	50.000	20.215	23.465	20.865	25.675	11.625	2.304	2.304	26.778	0.473	0.330	-0.143	50.000	16.185	24.440	16.575	28.535	12.184	4.114	4.058	49.445	0.521	0.065	-0.453	50.000	12.220	18.135	6.175	27.625	7.574	11.252	11.170	84.593	0.126	0.090	NaN	50.000	18.005	23.920	18.850	27.560	11.676	3.737	3.698	43.175	0.395	NaN	-0.395	NaN	NaN	NaN	NaN	NaN	NaN	NaN	NaN	NaN	NaN	NaN	NaN
72	51.000	17.225	6.955	20.540	5.915	5.135	3.474	1.082	5.556	-0.115	NaN	-0.062	51.000	12.350	13.715	6.175	19.240	5.077	8.286	7.619	38.680	0.112	0.048	0.092	51.000	23.140	16.770	31.070	20.215	7.594	8.646	8.368	63.544	-0.251	-0.119	0.119	51.000	13.910	18.005	10.075	26.780	6.749	9.576	9.537	64.368	-0.454	-0.205	0.264	51.000	20.215	23.790	20.865	26.065	12.092	2.366	2.365	28.603	0.062	0.375	0.312	51.000	16.185	24.050	16.575	28.405	12.000	4.372	4.309	51.706	0.251	-0.129	-0.388	51.000	12.220	18.135	6.175	27.625	7.807	11.252	11.174	87.229	0.004	NaN	NaN	51.000	17.875	23.465	18.850	27.560	11.397	4.209	4.148	47.278	0.450	NaN	-0.473	NaN	NaN	NaN	NaN	NaN	NaN	NaN	NaN	NaN	NaN	NaN	NaN
73	52.000	17.290	7.020	20.540	5.915	5.137	3.433	1.187	6.097	0.105	NaN	0.041	52.000	12.415	13.715	6.240	19.240	4.995	8.286	7.592	37.919	-0.027	-0.048	-0.048	52.000	23.075	16.770	31.070	20.280	7.502	8.732	8.463	63.489	0.094	0.026	-0.060	52.000	13.910	18.395	10.075	26.845	7.036	9.280	9.266	65.192	-0.271	0.059	0.355	52.000	20.150	23.660	20.995	26.390	11.887	2.858	2.855	33.935	0.489	0.349	-0.143	52.000	16.185	24.180	16.510	28.340	12.064	4.173	4.120	49.707	-0.189	-0.070	0.130	52.000	12.155	18.265	6.175	27.690	7.898	11.162	11.081	87.517	-0.093	0.055	0.145	52.000	17.875	23.400	18.850	27.690	11.268	4.399	4.343	48.938	0.195	0.127	-0.063	NaN	NaN	NaN	NaN	NaN	NaN	NaN	NaN	NaN	NaN	NaN	NaN
74	53.000	17.225	7.020	20.540	5.850	4.940	3.515	1.214	5.995	0.027	0.022	-0.061	53.000	11.440	14.170	6.240	19.240	6.132	7.263	6.678	40.949	-0.914	NaN	1.016	53.000	23.075	16.835	31.005	20.215	7.665	8.620	8.269	63.383	-0.193	-0.085	0.025	53.000	13.845	18.655	10.010	26.975	7.471	9.161	9.158	68.415	-0.108	0.145	0.263	53.000	20.150	23.725	21.060	26.585	12.139	3.001	2.996	36.369	0.141	0.206	0.062	53.000	16.250	23.855	16.445	28.210	11.930	4.359	4.327	51.625	0.207	-0.133	-0.322	53.000	12.090	18.135	6.045	27.820	7.990	11.417	11.321	90.453	0.241	0.179	-0.076	53.000	17.875	23.465	18.915	27.755	11.527	4.414	4.346	50.100	0.003	0.078	0.063	NaN	NaN	NaN	NaN	NaN	NaN	NaN	NaN	NaN	NaN	NaN	NaN
75	54.000	17.225	7.085	20.540	5.915	4.877	3.515	1.258	6.135	0.044	-0.022	-0.022	54.000	11.700	14.040	6.240	19.240	5.782	7.540	6.965	40.273	0.287	NaN	-0.278	54.000	22.880	16.770	31.070	20.215	7.523	8.885	8.500	63.950	0.231	0.060	-0.205	54.000	13.715	19.175	10.010	26.975	7.967	8.635	8.635	68.800	-0.523	NaN	0.525	54.000	20.150	23.725	21.125	26.845	12.155	3.269	3.265	39.685	0.269	0.268	NaN	54.000	16.250	23.725	16.445	28.210	11.795	4.489	4.460	52.601	0.132	NaN	-0.130	54.000	12.090	18.265	6.045	27.950	8.050	11.417	11.344	91.319	0.023	0.110	0.110	54.000	17.875	23.270	18.850	27.690	11.337	4.526	4.477	50.751	0.130	-0.077	-0.190	NaN	NaN	NaN	NaN	NaN	NaN	NaN	NaN	NaN	NaN	NaN	NaN
76	55.000	17.225	7.020	20.540	5.850	4.951	3.515	1.385	6.857	0.127	0.022	0.022	55.000	11.895	13.975	6.240	19.240	5.395	7.727	7.212	38.912	0.247	NaN	-0.187	55.000	22.750	16.705	31.005	20.215	7.532	8.970	8.622	64.947	0.122	-0.060	-0.145	55.000	13.715	19.110	10.075	26.780	7.827	8.490	8.487	66.434	-0.148	-0.204	-0.059	55.000	20.085	23.660	21.255	27.040	12.126	3.577	3.569	43.272	0.304	0.227	-0.083	55.000	16.250	23.790	16.445	28.145	11.848	4.359	4.338	51.393	-0.122	-0.065	0.065	55.000	12.090	18.265	6.045	27.885	7.930	11.362	11.315	89.731	-0.029	-0.055	NaN	55.000	17.810	22.815	18.850	27.625	10.893	4.921	4.880	53.159	0.403	-0.064	-0.458	NaN	NaN	NaN	NaN	NaN	NaN	NaN	NaN	NaN	NaN	NaN	NaN
77	56.000	17.225	7.020	20.540	5.850	5.007	3.515	1.084	5.425	-0.302	NaN	NaN	56.000	12.025	13.975	6.240	19.240	5.676	7.822	7.242	41.101	0.030	NaN	-0.096	56.000	23.335	16.900	31.070	20.215	7.715	8.415	8.090	62.416	-0.532	0.060	0.615	56.000	13.585	19.435	10.075	26.780	8.314	8.141	8.138	67.659	-0.349	NaN	0.349	56.000	20.020	23.465	21.190	26.975	11.746	3.700	3.684	43.272	0.115	-0.082	-0.206	56.000	16.250	23.920	16.445	28.015	11.946	4.100	4.059	48.495	-0.278	-0.130	0.130	56.000	12.025	18.265	6.045	27.885	8.206	11.327	11.199	91.902	-0.116	NaN	0.034	56.000	17.745	22.620	18.850	27.495	10.602	4.999	4.912	52.082	0.032	-0.127	-0.205	NaN	NaN	NaN	NaN	NaN	NaN	NaN	NaN	NaN	NaN	NaN	NaN
78	57.000	17.160	7.020	20.540	5.850	4.745	3.577	1.124	5.332	0.040	NaN	-0.061	57.000	12.025	14.040	6.175	19.240	5.676	7.827	7.444	42.250	0.202	0.049	0.043	57.000	22.945	16.705	31.070	20.215	7.558	8.851	8.443	63.814	0.354	NaN	-0.435	57.000	13.650	19.175	10.075	26.715	8.227	8.345	8.344	68.652	0.206	-0.059	-0.263	57.000	19.955	23.400	21.255	27.105	11.951	3.926	3.904	46.657	0.220	0.144	-0.083	57.000	16.380	23.400	16.315	27.950	11.666	4.550	4.543	52.994	0.483	-0.063	-0.522	57.000	11.960	18.330	5.915	28.015	8.415	11.417	11.337	95.409	0.139	0.179	0.090	57.000	17.615	22.620	18.850	27.495	10.862	5.029	4.916	53.400	0.004	NaN	-0.032	NaN	NaN	NaN	NaN	NaN	NaN	NaN	NaN	NaN	NaN	NaN	NaN
79	58.000	17.225	6.955	20.540	5.850	4.810	3.494	1.105	5.315	-0.019	NaN	0.082	58.000	12.350	13.910	6.240	19.240	5.326	8.108	7.739	41.219	0.295	-0.049	-0.330	58.000	22.880	16.705	31.070	20.280	7.509	8.936	8.520	63.975	0.077	0.026	-0.060	58.000	13.715	18.915	10.140	26.715	7.965	8.580	8.577	68.318	0.233	-0.027	-0.263	58.000	19.955	23.400	21.255	27.170	11.951	3.988	3.967	47.413	0.063	0.061	NaN	58.000	16.445	23.205	16.120	27.820	11.467	4.626	4.626	53.049	0.084	-0.116	-0.199	58.000	12.025	18.395	5.980	27.950	8.426	11.307	11.249	94.784	-0.088	-0.090	0.020	58.000	17.615	22.815	18.850	27.560	11.057	4.903	4.786	52.914	-0.131	0.063	0.189	NaN	NaN	NaN	NaN	NaN	NaN	NaN	NaN	NaN	NaN	NaN	NaN
80	59.000	17.160	7.020	20.540	5.850	4.810	3.577	1.170	5.628	0.065	NaN	-0.083	59.000	12.220	13.910	6.175	19.240	5.360	8.059	7.640	40.949	-0.100	0.049	0.098	59.000	23.075	16.835	31.070	20.215	7.748	8.680	8.287	64.207	-0.233	-0.025	0.230	59.000	13.715	18.720	10.075	26.715	7.703	8.785	8.779	67.625	0.202	0.027	-0.177	59.000	20.085	23.530	21.320	27.235	12.060	3.905	3.894	46.961	-0.073	0.082	0.164	59.000	16.445	23.010	16.055	27.820	11.203	4.826	4.825	54.055	0.199	0.005	-0.194	59.000	12.025	18.330	5.915	28.080	8.284	11.506	11.438	94.750	0.189	0.145	-0.055	59.000	17.810	23.075	18.850	27.495	11.264	4.541	4.473	50.379	-0.313	-0.063	0.298	NaN	NaN	NaN	NaN	NaN	NaN	NaN	NaN	NaN	NaN	NaN	NaN
81	60.000	17.095	6.955	20.605	5.915	5.070	3.661	0.995	5.045	-0.175	0.044	-0.044	60.000	12.350	13.910	6.175	19.240	5.166	8.157	7.694	39.749	0.054	NaN	-0.098	60.000	23.270	16.900	31.070	20.280	7.817	8.501	8.205	64.136	-0.081	0.026	0.205	60.000	13.780	18.655	10.140	26.650	7.442	8.785	8.776	65.310	-0.003	-0.086	-0.086	60.000	20.215	23.920	21.385	27.365	12.281	3.638	3.628	44.553	-0.266	0.144	0.411	60.000	16.575	22.750	16.055	27.885	10.741	5.161	5.156	55.377	0.331	0.065	-0.272	60.000	12.025	18.265	5.915	28.080	8.081	11.561	11.461	92.620	0.023	NaN	-0.055	60.000	17.875	23.075	18.850	27.560	11.073	4.590	4.539	50.256	0.066	0.064	0.014	NaN	NaN	NaN	NaN	NaN	NaN	NaN	NaN	NaN	NaN	NaN	NaN
82	61.000	17.225	7.020	20.540	5.915	4.875	3.494	1.149	5.602	0.154	-0.062	0.103	61.000	12.220	14.040	6.175	19.240	5.386	7.974	7.616	41.016	-0.078	NaN	0.183	61.000	23.270	16.900	31.070	20.280	7.898	8.501	8.176	64.575	-0.029	NaN	NaN	61.000	13.650	19.110	10.205	26.520	8.023	8.172	8.170	65.555	-0.606	-0.145	0.467	61.000	20.150	23.725	21.385	27.430	12.202	3.905	3.895	47.523	0.267	0.062	-0.206	61.000	16.575	22.620	16.120	28.015	10.741	5.414	5.412	58.128	0.256	0.124	-0.130	61.000	12.025	18.200	5.980	28.015	8.131	11.527	11.428	92.925	-0.033	-0.089	-0.055	61.000	17.875	23.010	18.850	27.560	11.138	4.653	4.603	51.270	0.065	NaN	-0.064	NaN	NaN	NaN	NaN	NaN	NaN	NaN	NaN	NaN	NaN	NaN	NaN
83	62.000	17.225	6.890	20.540	5.850	5.005	3.474	1.040	5.205	-0.109	0.019	0.039	62.000	12.285	13.975	6.240	19.240	5.360	8.016	7.614	40.814	-0.002	-0.049	-0.092	62.000	23.205	16.965	31.070	20.280	7.840	8.535	8.143	63.840	-0.033	NaN	-0.035	62.000	13.780	18.850	10.205	26.520	7.761	8.462	8.460	65.661	0.289	NaN	-0.291	62.000	20.085	23.595	21.450	27.495	12.044	4.132	4.113	49.534	0.218	0.083	-0.144	62.000	16.510	22.750	16.120	28.080	10.879	5.344	5.344	58.136	-0.068	0.065	0.134	62.000	12.025	18.200	5.980	28.015	8.173	11.527	11.418	93.318	-0.010	NaN	NaN	62.000	17.810	22.815	18.850	27.495	10.936	4.794	4.729	51.714	0.126	-0.063	-0.204	NaN	NaN	NaN	NaN	NaN	NaN	NaN	NaN	NaN	NaN	NaN	NaN
84	63.000	17.225	6.890	20.605	5.850	5.070	3.536	1.083	5.493	0.043	0.062	NaN	63.000	12.220	13.975	6.240	19.240	5.335	7.967	7.526	40.150	-0.089	NaN	0.049	63.000	23.270	16.900	31.070	20.280	7.857	8.501	8.191	64.355	0.048	NaN	0.034	63.000	14.040	18.395	10.205	26.455	7.151	8.926	8.926	63.831	0.466	-0.059	-0.523	63.000	20.085	23.725	21.515	27.560	12.123	4.093	4.067	49.302	-0.046	0.084	0.122	63.000	16.575	22.620	16.185	28.015	10.676	5.409	5.408	57.739	0.064	-0.070	-0.134	63.000	12.090	18.200	6.045	27.950	8.040	11.472	11.379	91.488	-0.039	-0.089	-0.034	63.000	17.680	22.815	18.850	27.495	10.867	4.824	4.731	51.410	0.002	NaN	-0.032	NaN	NaN	NaN	NaN	NaN	NaN	NaN	NaN	NaN	NaN	NaN	NaN
85	64.000	17.225	6.955	20.605	5.850	5.072	3.556	1.191	6.042	0.108	NaN	-0.020	64.000	12.155	13.975	6.240	19.240	5.311	7.919	7.435	39.487	-0.091	NaN	0.049	64.000	23.140	16.835	31.135	20.280	7.725	8.706	8.401	64.900	0.211	0.060	-0.145	64.000	14.040	18.655	10.140	26.455	7.300	8.721	8.716	63.629	-0.209	0.029	0.233	64.000	20.085	23.920	21.645	27.820	12.265	4.200	4.163	51.055	0.096	0.290	0.181	64.000	16.575	22.555	16.250	28.210	10.543	5.664	5.664	59.716	0.256	0.191	-0.065	64.000	12.025	18.135	6.045	27.950	7.940	11.493	11.372	90.288	-0.007	NaN	-0.022	64.000	17.615	22.685	18.850	27.495	10.673	4.966	4.864	51.917	0.134	NaN	-0.142	NaN	NaN	NaN	NaN	NaN	NaN	NaN	NaN	NaN	NaN	NaN	NaN
86	65.000	17.160	6.955	20.605	5.850	5.005	3.618	1.105	5.531	-0.086	NaN	-0.062	65.000	12.090	13.975	6.240	19.240	5.456	7.870	7.381	40.268	-0.054	NaN	0.048	65.000	23.270	16.900	31.070	20.280	7.857	8.501	8.191	64.355	-0.211	-0.060	0.145	65.000	13.975	18.850	10.140	26.455	7.591	8.517	8.512	64.613	-0.204	NaN	0.203	65.000	19.955	23.790	21.645	28.015	12.156	4.550	4.500	54.705	0.338	0.181	-0.169	65.000	16.640	22.490	16.250	28.340	10.543	5.863	5.862	61.803	0.198	0.130	-0.069	65.000	12.090	18.005	6.110	27.885	7.890	11.549	11.413	90.043	0.041	-0.089	-0.145	65.000	17.485	22.555	18.850	27.495	10.600	5.125	4.980	52.783	0.115	NaN	-0.160	NaN	NaN	NaN	NaN	NaN	NaN	NaN	NaN	NaN	NaN	NaN	NaN
87	66.000	17.225	6.890	20.605	5.850	5.135	3.536	0.997	5.121	-0.108	NaN	0.081	66.000	12.350	13.910	6.240	19.240	5.287	8.108	7.609	40.230	0.228	NaN	-0.239	66.000	23.270	16.965	31.070	20.280	7.757	8.475	8.125	63.020	-0.066	NaN	0.025	66.000	14.040	18.915	10.270	26.325	7.618	8.314	8.310	63.307	-0.202	-0.175	0.028	66.000	19.890	23.920	21.710	28.015	12.176	4.481	4.389	53.442	-0.111	0.026	0.092	66.000	16.640	22.490	16.250	28.340	10.485	5.863	5.863	61.474	8.095E-4	NaN	NaN	66.000	12.090	18.005	6.175	27.820	7.925	11.460	11.288	89.452	-0.125	-0.089	NaN	66.000	17.550	22.620	18.850	27.430	10.598	4.983	4.840	51.300	-0.139	-0.063	0.080	NaN	NaN	NaN	NaN	NaN	NaN	NaN	NaN	NaN	NaN	NaN	NaN
88	67.000	17.095	6.955	20.605	5.850	5.007	3.680	1.013	5.074	0.016	NaN	-0.144	67.000	12.350	13.975	6.240	19.240	5.275	8.066	7.658	40.395	0.049	NaN	0.042	67.000	23.270	16.965	31.070	20.215	7.848	8.450	8.081	63.417	-0.044	-0.025	NaN	67.000	14.040	19.045	10.335	26.130	7.768	7.995	7.981	61.998	-0.329	-0.203	0.115	67.000	19.825	23.855	21.775	28.145	12.176	4.712	4.607	56.100	0.218	0.145	-0.086	67.000	16.640	22.620	16.250	28.340	10.676	5.733	5.733	61.203	-0.130	NaN	0.130	67.000	12.025	18.265	6.240	27.625	8.173	11.003	10.902	89.097	-0.386	-0.200	0.255	67.000	17.745	22.815	18.850	27.495	10.867	4.809	4.728	51.376	-0.113	0.063	0.235	NaN	NaN	NaN	NaN	NaN	NaN	NaN	NaN	NaN	NaN	NaN	NaN
89	68.000	17.225	7.020	20.605	5.915	4.875	3.556	1.150	5.607	0.136	-0.020	0.103	68.000	11.635	14.040	6.240	19.240	5.927	7.493	6.911	40.961	-0.747	NaN	0.560	68.000	23.205	16.965	31.070	20.280	7.890	8.535	8.156	64.351	0.076	0.025	-0.060	68.000	13.650	19.955	10.400	26.000	8.791	6.863	6.840	60.130	-1.141	-0.145	0.986	68.000	19.825	23.725	21.905	28.275	12.126	5.003	4.896	59.370	0.288	0.172	-0.118	68.000	16.640	22.750	16.250	28.340	10.867	5.604	5.602	60.882	-0.131	NaN	0.130	68.000	11.960	18.395	6.435	27.365	8.324	10.535	10.456	87.035	-0.446	-0.324	0.145	68.000	17.810	22.945	18.850	27.495	11.069	4.667	4.603	50.954	-0.124	NaN	0.141	NaN	NaN	NaN	NaN	NaN	NaN	NaN	NaN	NaN	NaN	NaN	NaN
90	69.000	17.225	7.020	20.605	5.850	4.944	3.577	1.302	6.439	0.152	0.021	NaN	69.000	11.830	13.845	6.240	19.240	5.531	7.769	7.094	39.238	0.183	NaN	-0.276	69.000	23.075	16.900	31.070	20.215	7.807	8.655	8.288	64.706	0.132	-0.025	-0.145	69.000	13.910	19.370	10.465	25.935	8.040	7.414	7.387	59.395	0.548	-0.088	-0.639	69.000	19.825	23.855	22.035	28.470	12.219	5.117	4.998	61.072	0.102	0.232	0.117	69.000	16.640	22.685	16.315	28.340	10.732	5.664	5.663	60.777	0.061	-0.004	-0.065	69.000	12.025	18.395	6.565	27.235	8.152	10.390	10.330	84.213	-0.126	-0.179	-0.034	69.000	18.005	23.075	18.850	27.430	11.158	4.436	4.412	49.230	-0.191	-0.064	0.165	NaN	NaN	NaN	NaN	NaN	NaN	NaN	NaN	NaN	NaN	NaN	NaN
91	70.000	17.160	7.020	20.605	5.850	4.947	3.638	1.349	6.676	0.047	NaN	-0.062	70.000	12.285	13.780	6.240	19.240	4.961	8.146	7.627	37.835	0.533	NaN	-0.381	70.000	22.945	16.900	31.070	20.215	7.807	8.775	8.389	65.492	0.101	NaN	-0.120	70.000	13.650	20.280	10.465	25.870	8.932	6.434	6.366	56.860	-1.022	-0.056	0.919	70.000	19.825	23.790	22.035	28.600	12.186	5.293	5.200	63.367	0.202	0.118	-0.059	70.000	16.640	22.620	16.250	28.275	10.663	5.668	5.663	60.384	-2.472E-4	-0.060	-0.065	70.000	11.895	18.525	6.565	27.170	8.255	10.156	10.106	83.431	-0.224	-0.055	0.179	70.000	18.135	23.140	18.850	27.430	11.248	4.349	4.343	48.845	-0.070	NaN	0.085	NaN	NaN	NaN	NaN	NaN	NaN	NaN	NaN	NaN	NaN	NaN	NaN
92	71.000	17.160	7.020	20.605	5.850	4.942	3.638	1.260	6.228	-0.089	NaN	NaN	71.000	12.480	13.715	6.240	19.240	4.877	8.334	7.810	38.088	0.184	NaN	-0.189	71.000	23.140	17.030	31.070	20.215	7.940	8.546	8.136	64.600	-0.253	NaN	0.229	71.000	13.780	19.955	10.465	25.935	8.630	6.837	6.788	58.584	0.422	0.057	-0.347	71.000	19.695	23.790	22.100	28.730	12.126	5.494	5.348	64.850	0.148	0.145	-0.057	71.000	16.640	22.620	16.315	28.340	10.667	5.729	5.728	61.102	0.065	0.061	NaN	71.000	13.130	17.160	6.565	27.170	6.500	11.971	11.947	77.656	1.841	NaN	-1.819	71.000	18.135	23.140	18.850	27.430	11.234	4.349	4.340	48.752	-0.003	NaN	NaN	NaN	NaN	NaN	NaN	NaN	NaN	NaN	NaN	NaN	NaN	NaN	NaN
93	72.000	17.290	6.825	20.605	5.850	5.074	3.455	1.102	5.590	-0.159	NaN	0.180	72.000	12.545	13.780	6.240	19.240	4.925	8.341	7.915	38.980	0.104	NaN	-0.007	72.000	23.140	17.030	31.070	20.215	7.932	8.546	8.106	64.292	-0.031	NaN	NaN	72.000	13.975	19.695	10.595	25.805	8.401	6.983	6.928	58.204	0.140	-0.177	-0.322	72.000	19.565	23.660	22.035	28.795	12.021	5.698	5.533	66.514	0.185	0.030	-0.174	72.000	16.575	22.750	16.315	28.405	10.867	5.661	5.661	61.520	-0.067	0.065	0.133	72.000	13.195	17.160	6.565	27.170	6.552	12.007	11.990	78.560	0.043	NaN	-0.036	72.000	18.070	23.075	18.850	27.430	11.222	4.424	4.406	49.449	0.067	NaN	-0.075	NaN	NaN	NaN	NaN	NaN	NaN	NaN	NaN	NaN	NaN	NaN	NaN
94	73.000	17.550	6.825	20.605	5.915	5.226	3.188	1.209	6.321	0.108	-0.019	0.249	73.000	12.545	13.845	6.240	19.240	4.840	8.298	7.871	38.097	-0.044	NaN	0.042	73.000	23.140	17.030	31.070	20.215	7.898	8.546	8.153	64.393	0.047	NaN	NaN	73.000	14.040	19.565	10.595	25.740	8.111	7.071	7.010	56.860	0.082	-0.057	-0.145	73.000	19.500	23.920	22.035	28.925	12.149	5.610	5.416	65.796	-0.117	0.116	0.203	73.000	16.445	23.075	16.315	28.340	11.065	5.267	5.265	58.254	-0.396	-0.065	0.328	73.000	13.130	17.160	6.565	27.170	6.448	11.971	11.942	77.005	-0.048	NaN	0.036	73.000	18.200	23.855	18.850	27.430	11.888	3.634	3.622	43.053	-0.785	NaN	0.791	NaN	NaN	NaN	NaN	NaN	NaN	NaN	NaN	NaN	NaN	NaN	NaN
95	74.000	17.290	6.955	20.605	5.915	5.271	3.474	1.202	6.338	-0.007	NaN	-0.287	74.000	12.415	13.910	6.240	19.240	4.915	8.157	7.631	37.505	-0.240	NaN	0.141	74.000	22.945	17.030	31.070	20.215	7.624	8.727	8.313	63.379	0.160	NaN	-0.182	74.000	14.105	19.500	10.595	25.740	7.846	7.159	7.099	55.694	0.089	NaN	-0.089	74.000	19.370	23.985	22.100	29.120	11.995	5.816	5.569	66.801	0.153	0.203	-0.004	74.000	16.445	23.010	16.250	28.340	10.806	5.334	5.333	57.625	0.068	0.002	-0.065	74.000	13.195	17.160	6.500	27.235	6.254	12.097	12.064	75.446	0.122	0.090	-0.036	74.000	18.265	24.375	18.850	27.430	12.218	3.111	3.098	37.856	-0.523	NaN	0.523	NaN	NaN	NaN	NaN	NaN	NaN	NaN	NaN	NaN	NaN	NaN	NaN
96	75.000	17.290	6.955	20.605	5.915	5.463	3.474	1.158	6.325	-0.045	NaN	NaN	75.000	12.415	13.910	6.240	19.240	4.913	8.157	7.504	36.867	-0.127	NaN	NaN	75.000	23.075	17.095	31.070	20.215	7.594	8.582	8.219	62.412	-0.094	NaN	0.145	75.000	14.105	19.435	10.660	25.610	7.630	7.071	7.031	53.649	-0.068	-0.145	-0.057	75.000	19.305	24.245	22.165	29.250	12.035	5.765	5.445	65.530	-0.124	0.145	0.193	75.000	16.445	23.270	16.250	28.210	10.874	4.944	4.943	53.750	-0.390	-0.130	0.260	75.000	11.960	18.395	6.565	27.170	7.882	10.301	10.172	80.178	-1.892	-0.089	1.699	75.000	18.395	24.700	18.850	27.495	12.354	2.832	2.827	34.928	-0.271	0.064	0.342	NaN	NaN	NaN	NaN	NaN	NaN	NaN	NaN	NaN	NaN	NaN	NaN
97	76.000	17.290	7.020	20.540	5.850	5.661	3.454	1.318	7.461	0.160	-0.039	-0.022	76.000	12.545	13.845	6.240	19.240	4.635	8.298	7.463	34.590	-0.041	NaN	-0.141	76.000	22.945	17.160	31.005	20.150	7.423	8.597	8.229	61.085	0.010	-0.084	-0.099	76.000	14.105	19.500	10.920	25.090	7.425	6.434	6.393	47.468	-0.638	-0.581	0.056	76.000	19.370	25.025	22.295	29.250	12.570	5.139	4.696	59.023	-0.749	0.074	0.678	76.000	16.445	23.140	16.250	28.210	10.481	5.074	5.073	53.172	0.130	NaN	-0.130	76.000	12.025	18.395	6.565	27.170	7.601	10.335	10.199	77.520	0.027	NaN	-0.034	76.000	18.590	25.285	18.785	27.495	12.706	2.219	2.217	28.172	-0.610	-0.006	0.600	NaN	NaN	NaN	NaN	NaN	NaN	NaN	NaN	NaN	NaN	NaN	NaN
98	77.000	17.290	7.150	20.540	5.915	5.928	3.477	1.446	8.573	0.128	-0.023	-0.046	77.000	12.480	13.845	6.240	19.240	4.488	8.249	7.083	31.789	-0.380	NaN	0.049	77.000	22.815	17.030	31.070	20.215	7.121	8.848	8.630	61.457	0.401	0.084	-0.168	77.000	14.105	19.630	11.050	24.960	7.135	6.143	6.101	43.530	-0.292	-0.177	0.113	77.000	19.435	25.805	22.490	29.250	12.990	4.604	3.975	51.634	-0.721	0.129	0.627	77.000	16.445	23.140	16.315	28.210	10.085	5.072	5.071	51.139	-0.002	-0.002	NaN	77.000	12.025	18.395	6.565	27.170	7.223	10.335	10.160	73.388	-0.039	NaN	NaN	77.000	18.785	26.065	18.850	27.495	13.136	1.431	1.425	18.713	-0.793	0.003	0.788	NaN	NaN	NaN	NaN	NaN	NaN	NaN	NaN	NaN	NaN	NaN	NaN
99	78.000	17.420	7.085	20.540	5.850	6.274	3.356	1.552	9.734	0.105	0.024	0.145	78.000	12.480	13.845	6.240	19.240	4.321	8.249	6.844	29.575	-0.239	NaN	NaN	78.000	22.425	17.030	31.070	20.215	6.761	9.213	8.977	60.688	0.346	NaN	-0.366	78.000	13.715	20.150	11.180	24.830	7.478	5.322	5.307	39.685	-0.793	-0.176	0.643	78.000	19.630	26.065	22.620	29.315	13.057	4.416	3.826	49.956	-0.149	0.136	0.323	78.000	16.510	22.945	16.250	28.210	9.624	5.271	5.270	50.717	0.199	0.003	-0.198	78.000	11.960	18.395	6.565	27.105	6.989	10.245	10.032	70.110	-0.128	-0.055	0.034	78.000	18.850	26.520	18.785	27.430	13.358	0.912	0.889	11.872	-0.536	-0.060	0.449	NaN	NaN	NaN	NaN	NaN	NaN	NaN	NaN	NaN	NaN	NaN	NaN
100	79.000	17.420	7.085	20.540	5.850	6.168	3.356	1.651	10.182	0.099	NaN	NaN	79.000	12.350	13.910	6.175	19.240	4.285	8.157	6.978	29.900	0.134	0.049	0.141	79.000	22.165	16.835	31.070	20.215	6.671	9.525	9.307	62.082	0.330	NaN	-0.312	79.000	13.455	20.410	11.180	24.830	7.861	4.971	4.960	38.988	-0.347	NaN	0.350	79.000	19.435	25.740	22.685	29.315	12.867	4.831	4.208	54.143	0.382	0.044	-0.372	79.000	16.380	23.140	16.315	28.210	9.947	5.070	5.070	50.434	-0.200	-8.333E-4	0.197	79.000	12.025	18.395	6.565	27.105	6.910	10.280	10.150	70.135	0.118	NaN	-0.035	79.000	18.785	26.260	18.850	27.495	13.251	1.237	1.229	16.279	0.340	0.068	-0.263	NaN	NaN	NaN	NaN	NaN	NaN	NaN	NaN	NaN	NaN	NaN	NaN
101	80.000	17.420	7.085	20.540	5.850	6.059	3.356	1.721	10.427	0.070	NaN	NaN	80.000	12.415	13.845	6.240	19.240	4.105	8.200	7.088	29.093	0.110	-0.049	-0.092	80.000	21.775	16.575	31.070	20.215	6.382	9.982	9.765	62.319	0.458	NaN	-0.458	80.000	13.195	20.540	11.180	24.765	8.151	4.681	4.678	38.131	-0.282	-0.059	0.229	80.000	19.435	25.675	22.620	29.250	12.960	4.788	4.213	54.604	0.005	-0.092	-0.049	80.000	16.510	22.945	16.315	28.145	9.880	5.204	5.199	51.363	0.128	-0.065	-0.200	80.000	11.960	18.395	6.565	27.105	6.966	10.245	10.138	70.621	-0.012	NaN	0.034	80.000	18.785	26.065	18.850	27.495	13.209	1.431	1.419	18.742	0.190	NaN	-0.195	NaN	NaN	NaN	NaN	NaN	NaN	NaN	NaN	NaN	NaN	NaN	NaN
102	81.000	17.290	7.150	20.540	5.850	6.113	3.500	1.769	10.816	0.048	NaN	-0.145	81.000	12.545	13.780	6.240	19.240	3.879	8.341	7.056	27.374	-0.031	NaN	-0.141	81.000	21.840	16.575	31.005	20.215	6.422	9.861	9.709	62.344	-0.056	-0.060	0.060	81.000	13.130	20.605	11.180	24.830	8.091	4.653	4.652	37.645	-0.026	0.059	0.086	81.000	19.565	25.805	22.750	29.380	13.006	4.788	4.246	55.225	0.033	0.184	0.184	81.000	16.445	22.945	16.250	28.210	9.750	5.269	5.264	51.321	0.065	0.067	0.002	81.000	12.025	18.330	6.565	27.105	6.733	10.335	10.224	68.838	0.086	NaN	-0.090	81.000	18.785	26.260	18.915	27.560	13.285	1.306	1.302	17.297	-0.117	0.071	0.194	NaN	NaN	NaN	NaN	NaN	NaN	NaN	NaN	NaN	NaN	NaN	NaN
103	82.000	17.550	7.085	20.605	5.915	6.134	3.271	1.671	10.250	-0.098	0.037	0.266	82.000	12.480	13.780	6.240	19.240	4.082	8.292	7.030	28.696	-0.026	NaN	0.049	82.000	21.840	16.575	31.005	20.215	6.346	9.861	9.673	61.389	-0.036	NaN	NaN	82.000	13.130	20.605	11.180	24.830	8.204	4.653	4.653	38.173	7.071E-4	NaN	NaN	82.000	19.500	25.740	22.945	29.640	12.960	5.204	4.590	59.480	0.343	0.324	-0.092	82.000	16.380	23.270	16.315	28.145	10.141	4.875	4.875	49.441	-0.388	-0.066	0.326	82.000	12.025	18.330	6.565	27.105	6.867	10.335	10.211	70.118	-0.013	NaN	NaN	82.000	18.785	26.195	18.915	27.495	13.262	1.306	1.303	17.280	9.758E-4	-0.065	-0.065	NaN	NaN	NaN	NaN	NaN	NaN	NaN	NaN	NaN	NaN	NaN	NaN
104	83.000	17.485	7.085	20.605	5.850	6.113	3.356	1.686	10.305	0.015	0.024	-0.060	83.000	12.480	13.845	6.240	19.240	4.157	8.249	7.075	29.410	0.045	NaN	0.043	83.000	22.165	16.705	31.070	20.215	6.635	9.572	9.393	62.327	-0.280	0.060	0.350	83.000	13.000	20.930	11.115	24.830	8.580	4.332	4.331	37.159	-0.322	0.028	0.349	83.000	19.565	25.675	23.075	29.705	12.896	5.344	4.734	61.051	0.144	0.134	-0.006	83.000	16.380	23.205	16.315	28.145	10.077	4.940	4.940	49.783	0.065	NaN	-0.065	83.000	12.025	18.265	6.630	27.105	6.861	10.356	10.194	69.941	-0.017	-0.034	-0.055	83.000	18.785	26.130	18.915	27.495	13.187	1.371	1.367	18.032	0.064	NaN	-0.065	NaN	NaN	NaN	NaN	NaN	NaN	NaN	NaN	NaN	NaN	NaN	NaN
105	84.000	17.485	7.020	20.605	5.850	6.168	3.332	1.586	9.785	-0.099	NaN	0.023	84.000	12.480	13.975	6.305	19.175	4.245	8.073	7.087	30.082	0.012	-0.092	0.084	84.000	22.165	16.770	31.005	20.215	6.616	9.488	9.277	61.381	-0.116	-0.061	0.024	84.000	13.065	20.800	11.180	24.830	8.462	4.449	4.449	37.649	0.118	-0.028	-0.145	84.000	19.565	25.675	23.205	29.900	12.881	5.577	4.941	63.650	0.207	0.233	NaN	84.000	16.380	23.140	16.315	28.210	10.013	5.070	5.070	50.768	0.130	0.065	-0.065	84.000	12.090	18.330	6.565	27.105	6.910	10.369	10.242	70.769	0.048	0.035	0.020	84.000	18.785	26.130	18.915	27.560	13.176	1.436	1.432	18.869	0.065	0.065	NaN	NaN	NaN	NaN	NaN	NaN	NaN	NaN	NaN	NaN	NaN	NaN	NaN
106	85.000	17.615	7.085	20.605	5.915	6.134	3.211	1.660	10.182	0.074	-0.024	0.097	85.000	12.285	14.040	6.240	19.240	4.385	7.974	6.992	30.665	-0.094	0.092	0.190	85.000	22.295	16.835	31.070	20.215	6.815	9.403	9.203	62.716	-0.075	0.061	0.145	85.000	13.065	20.865	11.180	24.830	8.494	4.390	4.390	37.286	-0.059	NaN	0.059	85.000	19.435	25.675	23.270	29.965	12.867	5.754	5.035	64.786	0.094	0.092	-0.087	85.000	16.445	22.880	16.315	27.950	9.751	5.072	5.071	49.449	0.001	-0.260	-0.262	85.000	12.025	18.330	6.565	27.105	6.910	10.335	10.199	70.473	-0.043	NaN	0.034	85.000	18.850	26.130	18.915	27.625	13.198	1.496	1.484	19.583	0.052	0.065	0.003	NaN	NaN	NaN	NaN	NaN	NaN	NaN	NaN	NaN	NaN	NaN	NaN
107	86.000	17.550	7.150	20.605	5.850	6.031	3.320	1.684	10.157	0.024	0.025	-0.085	86.000	12.220	14.105	6.305	19.175	4.653	7.791	6.846	31.857	-0.146	-0.092	0.092	86.000	22.425	16.835	31.005	20.215	6.761	9.222	9.029	61.043	-0.173	-0.060	0.121	86.000	13.130	20.800	11.115	24.830	8.490	4.506	4.505	38.245	0.115	0.029	-0.087	86.000	19.435	25.675	23.400	30.095	12.825	5.938	5.147	66.016	0.112	0.184	NaN	86.000	16.445	22.880	16.315	27.950	9.755	5.072	5.072	49.475	2.340E-4	NaN	NaN	86.000	11.960	18.460	6.630	27.105	7.179	10.156	9.989	71.715	-0.210	-0.034	0.145	86.000	18.785	26.195	18.915	27.690	13.219	1.501	1.497	19.794	0.014	0.065	0.059	NaN	NaN	NaN	NaN	NaN	NaN	NaN	NaN	NaN	NaN	NaN	NaN
108	87.000	17.550	7.215	20.605	5.850	5.837	3.346	1.761	10.279	0.077	NaN	-0.027	87.000	12.415	13.910	6.240	19.240	4.449	8.157	7.135	31.742	0.289	0.092	-0.275	87.000	22.490	16.900	31.070	20.215	6.923	9.198	8.956	62.006	-0.073	0.061	0.084	87.000	13.130	20.800	11.115	24.830	8.608	4.506	4.504	38.769	-6.938E-4	NaN	NaN	87.000	19.370	25.480	23.465	30.160	12.748	6.219	5.417	69.053	0.269	0.092	-0.190	87.000	16.575	22.815	16.315	27.885	9.817	5.077	5.074	49.813	0.003	-0.065	-0.072	87.000	12.025	18.395	6.565	27.105	7.185	10.280	10.146	72.898	0.157	0.035	-0.090	87.000	18.785	25.935	18.915	27.690	13.091	1.760	1.754	22.963	0.257	NaN	-0.259	NaN	NaN	NaN	NaN	NaN	NaN	NaN	NaN	NaN	NaN	NaN	NaN
109	88.000	17.485	7.215	20.605	5.850	5.894	3.406	1.733	10.216	-0.028	NaN	-0.060	88.000	12.285	13.910	6.240	19.240	4.564	8.059	6.927	31.616	-0.207	NaN	0.098	88.000	22.555	16.965	31.005	20.215	6.977	9.053	8.823	61.558	-0.133	-0.061	0.084	88.000	13.325	20.540	11.115	24.830	8.231	4.826	4.821	39.681	0.317	NaN	-0.320	88.000	19.435	25.675	23.465	30.160	12.889	6.030	5.221	67.296	-0.195	NaN	0.188	88.000	16.640	22.620	16.315	27.950	9.556	5.340	5.334	50.970	0.260	0.065	-0.199	88.000	12.025	18.460	6.565	27.105	7.185	10.225	10.097	72.547	-0.049	NaN	0.055	88.000	18.850	26.065	18.850	27.495	13.165	1.430	1.412	18.590	-0.342	-0.195	0.130	NaN	NaN	NaN	NaN	NaN	NaN	NaN	NaN	NaN	NaN	NaN	NaN
110	89.000	17.550	7.215	20.605	5.850	5.944	3.346	1.659	9.861	-0.074	NaN	0.059	89.000	12.285	13.845	6.240	19.175	4.734	8.059	6.781	32.102	-0.147	-0.043	-0.043	89.000	22.815	16.965	31.005	20.215	6.995	8.811	8.631	60.375	-0.192	NaN	0.242	89.000	13.455	20.150	11.245	24.830	7.849	5.176	5.174	40.611	0.353	-0.056	-0.408	89.000	19.435	25.805	23.270	29.965	12.913	5.658	4.817	62.200	-0.405	-0.276	0.096	89.000	16.640	22.620	16.250	27.430	9.496	4.826	4.821	45.774	-0.513	-0.513	NaN	89.000	12.025	18.395	6.565	27.170	7.220	10.335	10.135	73.173	0.038	0.055	-0.055	89.000	18.850	26.065	18.850	27.495	13.072	1.430	1.415	18.497	0.003	NaN	NaN	NaN	NaN	NaN	NaN	NaN	NaN	NaN	NaN	NaN	NaN	NaN	NaN
111	90.000	17.290	7.475	20.605	5.850	6.116	3.692	1.764	10.791	0.105	NaN	-0.348	90.000	12.285	13.780	6.305	19.175	4.749	8.054	6.196	29.427	-0.584	-0.048	-0.044	90.000	23.010	17.030	31.005	20.215	6.901	8.606	8.518	58.782	-0.114	NaN	0.205	90.000	13.455	19.955	11.180	24.830	7.305	5.380	5.365	39.187	0.190	0.027	-0.177	90.000	19.695	26.585	23.075	29.640	13.270	4.556	3.672	48.723	-1.145	-0.363	0.716	90.000	16.640	22.620	16.250	27.365	9.043	4.761	4.757	43.023	-0.063	-0.065	NaN	90.000	12.285	18.070	6.565	27.105	6.529	10.693	10.363	67.663	0.228	-0.055	-0.414	90.000	18.980	27.040	18.915	27.495	13.596	0.460	0.441	5.995	-0.974	-0.009	0.947	NaN	NaN	NaN	NaN	NaN	NaN	NaN	NaN	NaN	NaN	NaN	NaN
112	91.000	17.420	7.410	20.605	5.915	6.127	3.518	1.727	10.584	-0.037	-0.028	0.145	91.000	12.155	13.780	6.240	19.240	4.817	8.050	6.201	29.871	0.005	0.092	0.096	91.000	22.945	17.030	31.005	20.215	6.934	8.666	8.563	59.378	0.046	NaN	-0.060	91.000	13.520	19.825	11.180	24.830	7.185	5.525	5.514	39.618	0.149	NaN	-0.145	91.000	19.695	26.520	22.945	29.510	13.284	4.416	3.594	47.743	-0.077	-0.184	-0.044	91.000	16.640	22.620	16.250	27.430	9.106	4.826	4.821	43.898	0.063	0.065	NaN	91.000	12.350	18.005	6.565	27.105	6.435	10.783	10.491	67.511	0.128	NaN	-0.090	91.000	18.980	26.910	18.850	27.495	13.541	0.599	0.559	7.571	0.118	0.014	-0.127	NaN	NaN	NaN	NaN	NaN	NaN	NaN	NaN	NaN	NaN	NaN	NaN
113	92.000	17.485	7.540	20.605	5.850	4.773	3.548	2.020	9.641	0.292	0.031	-0.005	92.000	12.285	13.715	6.240	19.240	4.894	8.189	7.396	36.191	1.195	NaN	-0.140	92.000	22.815	17.030	31.005	20.215	7.532	8.788	8.367	63.024	-0.196	NaN	-0.121	92.000	13.650	19.695	11.115	24.830	8.118	5.727	5.723	46.454	0.208	0.029	-0.174	92.000	18.525	24.245	22.945	29.315	12.061	6.726	5.599	67.532	2.005	-0.147	-2.484	92.000	16.575	22.880	16.250	27.430	10.602	4.562	4.559	48.334	-0.262	NaN	0.264	92.000	12.285	18.070	6.630	27.105	7.441	10.659	10.581	78.733	0.090	-0.034	0.090	NaN	NaN	NaN	NaN	NaN	NaN	NaN	NaN	NaN	NaN	NaN	NaN	NaN	NaN	NaN	NaN	NaN	NaN	NaN	NaN	NaN	NaN	NaN	NaN
114	93.000	17.420	7.475	20.605	5.850	5.863	3.576	1.833	10.748	-0.187	NaN	-0.028	93.000	12.415	13.585	6.240	19.240	4.622	8.373	6.483	29.968	-0.912	NaN	-0.184	93.000	22.880	16.965	30.875	20.085	6.890	8.582	8.437	58.128	0.069	-0.168	0.037	93.000	13.780	19.500	11.180	24.830	6.978	5.930	5.928	41.363	0.205	-0.028	-0.232	93.000	19.500	26.000	22.620	29.120	12.913	4.412	3.659	47.252	-1.940	-0.368	1.930	93.000	16.640	22.620	16.250	27.430	9.303	4.826	4.822	44.861	0.263	NaN	-0.264	93.000	12.220	18.200	6.565	27.105	6.848	10.549	10.311	70.612	-0.270	0.035	0.145	NaN	NaN	NaN	NaN	NaN	NaN	NaN	NaN	NaN	NaN	NaN	NaN	NaN	NaN	NaN	NaN	NaN	NaN	NaN	NaN	NaN	NaN	NaN	NaN
115	94.000	17.420	7.345	20.605	5.850	5.798	3.518	1.706	9.891	-0.127	NaN	0.055	94.000	12.220	13.715	6.305	19.175	4.845	8.050	6.531	31.645	0.048	-0.092	0.231	94.000	22.880	16.835	30.875	20.085	6.925	8.630	8.493	58.812	0.057	NaN	-0.049	94.000	13.910	19.240	11.180	24.830	6.861	6.221	6.220	42.673	0.292	NaN	-0.291	94.000	19.435	25.675	22.425	28.990	12.773	4.464	3.819	48.778	0.160	-0.227	-0.285	94.000	16.705	22.620	16.250	27.430	9.496	4.831	4.823	45.795	6.340E-4	NaN	-0.006	94.000	12.220	18.135	6.565	27.105	6.942	10.604	10.386	72.095	0.075	NaN	-0.055	NaN	NaN	NaN	NaN	NaN	NaN	NaN	NaN	NaN	NaN	NaN	NaN	NaN	NaN	NaN	NaN	NaN	NaN	NaN	NaN	NaN	NaN	NaN	NaN
116	95.000	17.485	7.280	20.605	5.850	5.868	3.432	1.668	9.785	-0.038	NaN	0.086	95.000	12.480	13.715	6.240	19.240	4.587	8.334	6.894	31.624	0.363	0.092	-0.195	95.000	22.880	16.835	30.810	20.020	6.925	8.546	8.404	58.191	-0.090	-0.085	NaN	95.000	14.105	19.045	11.180	24.830	6.599	6.482	6.482	42.774	0.262	NaN	-0.262	95.000	19.435	25.610	22.425	28.990	12.710	4.513	3.885	49.373	0.066	NaN	-0.049	95.000	16.640	22.750	16.250	27.365	9.628	4.631	4.627	44.548	-0.196	-0.065	0.135	95.000	12.220	18.070	6.630	27.105	6.895	10.624	10.373	71.521	-0.013	-0.034	-0.055	NaN	NaN	NaN	NaN	NaN	NaN	NaN	NaN	NaN	NaN	NaN	NaN	NaN	NaN	NaN	NaN	NaN	NaN	NaN	NaN	NaN	NaN	NaN	NaN
117	96.000	17.485	7.280	20.540	5.850	5.791	3.373	1.291	7.478	-0.376	-0.059	NaN	96.000	12.415	13.715	6.240	19.175	5.369	8.243	6.791	36.462	-0.103	-0.043	0.049	96.000	23.985	17.030	30.810	20.020	7.393	7.451	7.364	54.443	-1.040	NaN	1.090	96.000	14.040	19.045	11.115	24.830	7.035	6.482	6.458	45.431	-0.024	0.029	0.029	96.000	19.435	25.480	22.425	28.990	12.529	4.611	3.881	48.630	-0.004	NaN	-0.099	96.000	16.640	22.685	16.250	27.430	9.683	4.761	4.759	46.078	0.131	0.065	-0.065	96.000	12.220	18.070	6.630	27.105	7.455	10.624	10.209	76.105	-0.164	NaN	NaN	NaN	NaN	NaN	NaN	NaN	NaN	NaN	NaN	NaN	NaN	NaN	NaN	NaN	NaN	NaN	NaN	NaN	NaN	NaN	NaN	NaN	NaN	NaN	NaN
118	97.000	17.355	7.280	20.605	5.850	5.921	3.551	1.286	7.613	-0.005	0.059	-0.119	97.000	12.350	13.715	6.240	19.240	5.291	8.238	6.623	35.042	-0.167	0.044	0.048	97.000	23.725	16.965	30.810	20.020	7.179	7.716	7.634	54.807	0.270	NaN	-0.264	97.000	14.105	18.980	11.180	24.895	6.767	6.599	6.574	44.485	0.116	0.029	-0.087	97.000	19.500	25.675	22.425	28.925	12.622	4.372	3.650	46.074	-0.231	-0.048	0.188	97.000	16.640	22.880	16.250	27.495	9.734	4.631	4.631	45.077	-0.128	0.065	0.194	97.000	12.480	17.615	6.630	27.105	6.775	11.148	10.625	71.986	0.416	NaN	-0.524	NaN	NaN	NaN	NaN	NaN	NaN	NaN	NaN	NaN	NaN	NaN	NaN	NaN	NaN	NaN	NaN	NaN	NaN	NaN	NaN	NaN	NaN	NaN	NaN
119	98.000	17.225	7.475	20.605	5.850	5.723	3.750	1.509	8.636	0.223	NaN	-0.202	98.000	12.285	13.715	6.240	19.240	5.161	8.189	6.571	33.914	-0.053	NaN	0.048	98.000	23.335	16.835	30.810	20.020	6.945	8.125	8.035	55.808	0.402	NaN	-0.410	98.000	14.105	18.850	11.115	24.960	6.555	6.802	6.783	44.464	0.209	0.087	-0.117	98.000	19.305	25.740	22.295	28.795	12.686	4.275	3.465	43.961	-0.185	-0.184	-0.090	98.000	16.640	22.750	16.250	27.430	9.587	4.696	4.696	45.022	0.065	-0.065	-0.130	98.000	12.480	17.615	6.565	27.105	6.629	11.182	10.736	71.166	0.111	0.034	NaN	NaN	NaN	NaN	NaN	NaN	NaN	NaN	NaN	NaN	NaN	NaN	NaN	NaN	NaN	NaN	NaN	NaN	NaN	NaN	NaN	NaN	NaN	NaN	NaN
120	99.000	17.355	7.540	20.540	5.850	5.655	3.606	1.690	9.557	0.181	-0.057	0.084	99.000	12.155	13.910	6.305	19.175	5.249	7.870	6.513	34.184	-0.058	-0.092	0.227	99.000	23.270	16.835	30.810	20.020	6.945	8.185	8.091	56.193	0.055	NaN	-0.060	99.000	13.910	19.045	10.985	25.090	6.789	6.715	6.693	45.440	-0.090	0.174	0.260	99.000	19.305	25.870	22.230	28.795	12.824	4.137	3.336	42.778	-0.130	-0.046	0.092	99.000	16.640	22.750	16.250	27.495	9.582	4.761	4.761	45.617	0.065	0.065	NaN	99.000	12.350	17.810	6.565	27.105	6.808	10.948	10.554	71.850	-0.182	NaN	0.234	NaN	NaN	NaN	NaN	NaN	NaN	NaN	NaN	NaN	NaN	NaN	NaN	NaN	NaN	NaN	NaN	NaN	NaN	NaN	NaN	NaN	NaN	NaN	NaN
121	100.000	17.290	7.605	20.605	5.850	5.655	3.751	1.755	9.925	0.065	0.057	-0.088	100.000	12.155	13.845	6.240	19.240	5.168	8.006	6.488	33.530	-0.025	0.092	-0.044	100.000	23.205	16.900	30.810	20.020	6.945	8.220	8.112	56.340	0.021	NaN	-0.035	100.000	13.910	18.980	10.920	25.285	6.644	6.978	6.949	46.171	0.256	0.204	-0.059	100.000	19.370	26.130	22.230	28.730	13.037	3.865	3.023	39.411	-0.313	-0.044	0.223	100.000	16.510	23.140	16.250	27.430	9.911	4.298	4.297	42.588	-0.464	-0.065	0.397	100.000	12.545	17.615	6.565	27.105	6.441	11.217	10.823	69.704	0.269	NaN	-0.269	NaN	NaN	NaN	NaN	NaN	NaN	NaN	NaN	NaN	NaN	NaN	NaN	NaN	NaN	NaN	NaN	NaN	NaN	NaN	NaN	NaN	NaN	NaN	NaN
122	101.000	17.225	7.605	20.605	5.850	4.942	3.808	1.665	8.230	-0.090	NaN	-0.058	101.000	12.220	13.780	6.305	19.175	5.281	8.006	7.013	37.036	0.525	-0.092	-0.092	101.000	23.205	17.030	30.810	20.020	7.371	8.172	7.855	57.899	-0.257	NaN	0.048	101.000	13.910	18.785	10.985	25.285	7.128	7.128	7.104	50.637	0.155	-0.027	-0.178	101.000	18.590	24.830	22.165	28.600	12.347	5.196	4.109	50.730	1.086	-0.139	-1.480	101.000	16.510	23.010	16.250	27.430	10.499	4.428	4.427	46.475	0.129	NaN	-0.130	101.000	12.480	17.745	6.630	27.105	7.128	11.038	10.830	77.191	0.007	-0.034	0.145	NaN	NaN	NaN	NaN	NaN	NaN	NaN	NaN	NaN	NaN	NaN	NaN	NaN	NaN	NaN	NaN	NaN	NaN	NaN	NaN	NaN	NaN	NaN	NaN
123	102.000	17.030	7.735	20.670	5.850	4.562	4.099	1.621	7.394	-0.045	0.058	-0.233	102.000	12.350	13.715	6.305	19.175	5.205	8.146	7.312	38.063	0.300	NaN	-0.140	102.000	23.270	17.160	30.810	20.020	7.665	8.064	7.637	58.542	-0.217	NaN	0.107	102.000	13.975	18.460	11.050	25.090	7.040	7.247	7.220	50.827	0.116	-0.205	-0.324	102.000	18.460	24.505	21.970	28.405	12.270	5.247	4.200	51.537	0.092	-0.275	-0.329	102.000	16.510	23.010	16.250	27.430	10.758	4.428	4.427	47.624	1.795E-4	NaN	NaN	102.000	12.870	17.290	6.565	27.105	6.721	11.666	11.517	77.402	0.688	0.035	-0.594	NaN	NaN	NaN	NaN	NaN	NaN	NaN	NaN	NaN	NaN	NaN	NaN	NaN	NaN	NaN	NaN	NaN	NaN	NaN	NaN	NaN	NaN	NaN	NaN
124	103.000	17.160	7.540	20.670	5.850	4.617	3.896	1.590	7.343	-0.030	NaN	0.202	103.000	12.480	13.650	6.305	19.175	5.037	8.286	7.537	37.962	0.224	NaN	-0.140	103.000	23.335	17.160	30.810	20.020	7.848	8.003	7.582	59.501	-0.056	NaN	0.061	103.000	13.975	18.395	11.050	25.025	7.066	7.247	7.227	51.068	0.007	-0.059	-0.059	103.000	18.395	24.180	21.970	28.340	12.076	5.485	4.470	53.974	0.269	-0.049	-0.289	103.000	16.575	22.880	16.250	27.365	10.749	4.497	4.497	48.334	0.070	-0.065	-0.134	103.000	12.935	17.225	6.630	27.105	6.684	11.720	11.603	77.550	0.086	-0.035	-0.090	NaN	NaN	NaN	NaN	NaN	NaN	NaN	NaN	NaN	NaN	NaN	NaN	NaN	NaN	NaN	NaN	NaN	NaN	NaN	NaN	NaN	NaN	NaN	NaN
125	104.000	17.290	7.410	20.605	5.850	4.550	3.664	1.560	7.098	-0.030	-0.059	0.173	104.000	12.480	13.715	6.305	19.175	5.120	8.243	7.672	39.284	0.136	NaN	0.043	104.000	23.010	17.095	30.810	20.020	7.687	8.330	7.758	59.636	0.177	NaN	-0.327	104.000	13.910	18.330	11.115	24.960	7.211	7.195	7.167	51.680	-0.061	-0.085	-0.035	104.000	18.265	23.790	21.645	28.015	11.870	5.411	4.488	53.277	0.019	-0.457	-0.386	104.000	16.575	22.880	16.250	27.430	10.943	4.562	4.562	49.918	0.065	0.065	NaN	104.000	12.805	17.355	6.565	27.105	7.016	11.576	11.487	80.588	-0.116	0.035	0.180	NaN	NaN	NaN	NaN	NaN	NaN	NaN	NaN	NaN	NaN	NaN	NaN	NaN	NaN	NaN	NaN	NaN	NaN	NaN	NaN	NaN	NaN	NaN	NaN
126	105.000	17.355	7.540	20.670	5.850	4.165	3.721	1.843	7.677	0.283	0.058	-0.001	105.000	12.480	13.715	6.240	19.240	5.095	8.334	7.916	40.336	0.244	0.092	NaN	105.000	23.075	17.160	30.810	20.020	8.050	8.247	7.624	61.368	-0.135	NaN	0.084	105.000	13.910	18.525	11.180	24.895	7.559	6.930	6.925	52.348	-0.242	-0.085	0.179	105.000	18.135	23.270	20.995	27.365	11.611	4.995	4.321	50.168	-0.168	-0.905	-0.501	105.000	16.510	23.010	16.250	27.495	11.329	4.493	4.493	50.894	-0.069	0.065	0.134	105.000	12.480	17.810	6.630	27.105	7.696	10.983	10.936	84.170	-0.550	-0.035	0.558	NaN	NaN	NaN	NaN	NaN	NaN	NaN	NaN	NaN	NaN	NaN	NaN	NaN	NaN	NaN	NaN	NaN	NaN	NaN	NaN	NaN	NaN	NaN	NaN
127	106.000	17.485	7.540	20.605	5.850	4.100	3.548	1.836	7.529	-0.007	-0.057	0.114	106.000	12.480	13.715	6.240	19.240	5.240	8.334	7.920	41.506	0.004	NaN	NaN	106.000	23.205	17.290	30.810	20.020	8.183	8.080	7.384	60.422	-0.240	NaN	0.166	106.000	13.845	18.655	11.245	24.830	7.820	6.700	6.689	52.306	-0.236	-0.085	0.145	106.000	18.005	22.880	20.995	27.430	11.268	5.445	4.731	53.303	0.410	0.054	-0.397	106.000	16.510	23.140	16.250	27.495	11.531	4.363	4.363	50.307	-0.130	NaN	0.130	106.000	12.285	18.070	6.630	27.105	8.152	10.659	10.604	86.444	-0.333	NaN	0.324	NaN	NaN	NaN	NaN	NaN	NaN	NaN	NaN	NaN	NaN	NaN	NaN	NaN	NaN	NaN	NaN	NaN	NaN	NaN	NaN	NaN	NaN	NaN	NaN
128	107.000	17.550	7.475	20.605	5.850	4.043	3.460	1.865	7.542	0.029	NaN	0.088	107.000	12.285	13.910	6.305	19.175	5.494	7.967	7.681	42.204	-0.239	-0.092	0.275	107.000	23.335	17.355	30.810	20.020	8.459	7.936	7.242	61.263	-0.141	NaN	0.144	107.000	13.650	18.980	11.245	24.830	8.286	6.325	6.315	52.327	-0.374	NaN	0.375	107.000	17.875	22.555	20.735	27.300	11.069	5.540	4.905	54.291	0.174	-0.246	-0.345	107.000	16.575	22.945	16.250	27.495	11.458	4.562	4.561	52.263	0.198	NaN	-0.199	107.000	12.025	18.525	6.630	27.105	8.736	10.135	10.106	88.286	-0.498	NaN	0.524	NaN	NaN	NaN	NaN	NaN	NaN	NaN	NaN	NaN	NaN	NaN	NaN	NaN	NaN	NaN	NaN	NaN	NaN	NaN	NaN	NaN	NaN	NaN	NaN
129	108.000	17.550	7.735	20.605	5.850	4.302	3.590	2.110	9.080	0.245	NaN	-0.137	108.000	12.220	13.910	6.305	19.175	5.348	7.919	7.391	39.529	-0.290	NaN	0.049	108.000	23.335	17.355	30.810	20.085	8.108	7.958	7.428	60.223	0.185	0.022	NaN	108.000	13.650	19.110	11.180	24.830	7.936	6.231	6.219	49.356	-0.096	0.026	0.119	108.000	18.395	23.855	20.735	27.040	11.888	3.952	3.400	40.416	-1.505	-0.210	1.356	108.000	16.575	22.945	16.250	27.430	10.939	4.497	4.496	49.187	-0.065	-0.065	NaN	108.000	12.090	18.590	6.630	27.105	8.335	10.115	10.071	83.938	-0.035	NaN	0.020	NaN	NaN	NaN	NaN	NaN	NaN	NaN	NaN	NaN	NaN	NaN	NaN	NaN	NaN	NaN	NaN	NaN	NaN	NaN	NaN	NaN	NaN	NaN	NaN
130	109.000	17.680	7.670	20.670	5.850	4.056	3.500	2.144	8.695	0.034	0.056	0.145	109.000	12.285	13.910	6.305	19.175	5.412	7.967	7.609	41.177	0.218	NaN	-0.049	109.000	23.270	17.290	30.810	20.020	8.233	8.019	7.389	60.840	-0.038	-0.022	-0.083	109.000	13.715	18.915	11.115	24.960	8.023	6.580	6.573	52.741	0.354	0.145	-0.205	109.000	18.200	23.335	20.735	27.040	11.676	4.489	3.904	45.579	0.504	NaN	-0.539	109.000	16.575	22.880	16.250	27.495	11.199	4.626	4.626	51.807	0.130	0.065	-0.065	109.000	12.155	18.460	6.565	27.105	8.450	10.295	10.270	86.782	0.199	0.035	-0.144	NaN	NaN	NaN	NaN	NaN	NaN	NaN	NaN	NaN	NaN	NaN	NaN	NaN	NaN	NaN	NaN	NaN	NaN	NaN	NaN	NaN	NaN	NaN	NaN
131	110.000	17.810	7.670	20.670	5.850	3.944	3.390	2.224	8.771	0.080	NaN	0.110	110.000	12.220	13.975	6.305	19.175	5.553	7.876	7.584	42.111	-0.025	NaN	0.092	110.000	23.400	17.355	30.810	20.020	8.461	7.875	7.230	61.174	-0.160	NaN	0.144	110.000	13.650	18.915	10.985	25.155	8.169	6.785	6.777	55.360	0.204	0.230	0.026	110.000	18.070	23.010	20.800	26.975	11.471	4.814	4.155	47.666	0.252	-0.017	-0.341	110.000	16.705	22.685	16.250	27.560	11.127	4.896	4.891	54.422	0.265	0.065	-0.206	110.000	12.220	18.330	6.630	27.105	8.411	10.404	10.379	87.297	0.109	-0.035	-0.145	NaN	NaN	NaN	NaN	NaN	NaN	NaN	NaN	NaN	NaN	NaN	NaN	NaN	NaN	NaN	NaN	NaN	NaN	NaN	NaN	NaN	NaN	NaN	NaN
132	111.000	18.005	7.475	20.735	5.850	4.029	3.177	2.084	8.395	-0.140	0.056	0.267	111.000	12.350	13.780	6.305	19.175	5.466	8.102	7.773	42.487	0.189	NaN	-0.227	111.000	23.400	17.355	30.810	20.020	8.504	7.875	7.178	61.039	-0.052	NaN	NaN	111.000	13.585	19.045	10.985	25.220	8.459	6.700	6.690	56.594	-0.087	0.060	0.145	111.000	17.940	22.750	20.800	26.975	11.329	5.102	4.382	49.644	0.227	NaN	-0.288	111.000	16.770	22.490	16.250	27.430	11.062	4.967	4.959	54.857	0.068	-0.129	-0.201	111.000	12.285	18.200	6.630	27.105	8.411	10.549	10.522	88.501	0.143	NaN	-0.145	NaN	NaN	NaN	NaN	NaN	NaN	NaN	NaN	NaN	NaN	NaN	NaN	NaN	NaN	NaN	NaN	NaN	NaN	NaN	NaN	NaN	NaN	NaN	NaN
133	112.000	18.135	6.825	20.670	5.850	4.704	2.716	1.447	6.806	-0.637	-0.061	0.355	112.000	12.415	13.845	6.305	19.240	5.378	8.151	7.878	42.364	0.105	0.043	-0.006	112.000	23.270	17.355	30.810	20.020	8.457	7.997	7.253	61.343	0.075	NaN	-0.123	112.000	13.585	19.045	10.855	25.285	8.431	6.811	6.807	57.392	0.117	0.112	NaN	112.000	17.875	22.685	20.670	26.975	11.264	5.120	4.444	50.058	0.062	-0.071	-0.090	112.000	16.705	22.620	16.250	27.430	11.192	4.831	4.826	54.012	-0.133	NaN	0.136	112.000	12.350	18.005	6.630	27.105	8.177	10.748	10.716	87.627	0.194	NaN	-0.200	NaN	NaN	NaN	NaN	NaN	NaN	NaN	NaN	NaN	NaN	NaN	NaN	NaN	NaN	NaN	NaN	NaN	NaN	NaN	NaN	NaN	NaN	NaN	NaN
134	113.000	18.070	6.890	20.670	5.850	4.704	2.800	1.523	7.166	0.076	NaN	-0.084	113.000	12.415	13.845	6.305	19.240	5.291	8.151	7.866	41.616	-0.012	NaN	NaN	113.000	23.075	17.290	30.810	20.020	8.274	8.203	7.439	61.546	0.186	NaN	-0.206	113.000	13.650	18.850	10.855	25.350	8.141	7.075	7.070	57.553	0.263	0.060	-0.205	113.000	17.810	22.685	20.670	26.975	11.199	5.156	4.449	49.821	0.005	NaN	-0.036	113.000	16.510	22.945	16.250	27.365	11.458	4.428	4.428	50.734	-0.398	-0.065	0.336	113.000	12.285	18.070	6.630	27.105	8.177	10.659	10.625	86.883	-0.091	NaN	0.090	NaN	NaN	NaN	NaN	NaN	NaN	NaN	NaN	NaN	NaN	NaN	NaN	NaN	NaN	NaN	NaN	NaN	NaN	NaN	NaN	NaN	NaN	NaN	NaN
135	114.000	18.070	6.825	20.670	5.850	4.756	2.777	1.421	6.760	-0.102	NaN	0.023	114.000	12.350	13.910	6.305	19.175	5.436	8.016	7.751	42.132	-0.115	-0.043	0.092	114.000	23.270	17.225	30.810	20.020	8.322	8.041	7.398	61.567	-0.041	NaN	0.160	114.000	13.585	18.980	10.920	25.285	8.314	6.845	6.835	56.830	-0.234	-0.085	0.145	114.000	17.810	22.750	20.605	27.105	11.260	5.175	4.494	50.607	0.046	0.074	0.055	114.000	16.510	22.945	16.250	27.430	11.462	4.493	4.492	51.494	0.065	0.065	NaN	114.000	12.285	18.005	6.630	27.105	8.164	10.714	10.667	87.086	0.042	NaN	-0.055	NaN	NaN	NaN	NaN	NaN	NaN	NaN	NaN	NaN	NaN	NaN	NaN	NaN	NaN	NaN	NaN	NaN	NaN	NaN	NaN	NaN	NaN	NaN	NaN
136	115.000	18.005	6.955	20.670	5.850	4.640	2.885	1.606	7.453	0.185	NaN	-0.110	115.000	12.350	13.845	6.305	19.175	5.291	8.059	7.779	41.156	0.028	NaN	-0.043	115.000	23.075	17.160	30.810	20.020	8.230	8.247	7.585	62.429	0.187	NaN	-0.205	115.000	13.650	19.045	10.985	25.220	8.290	6.726	6.724	55.740	-0.111	-0.085	0.034	115.000	17.680	22.555	20.670	27.105	11.065	5.445	4.702	52.027	0.207	0.036	-0.234	115.000	16.575	22.880	16.250	27.430	11.387	4.562	4.560	51.925	0.068	NaN	-0.069	115.000	12.025	18.460	6.630	27.105	8.607	10.190	10.164	87.479	-0.503	NaN	0.524	NaN	NaN	NaN	NaN	NaN	NaN	NaN	NaN	NaN	NaN	NaN	NaN	NaN	NaN	NaN	NaN	NaN	NaN	NaN	NaN	NaN	NaN	NaN	NaN
137	116.000	17.940	6.955	20.670	5.850	4.640	2.945	1.619	7.512	0.013	NaN	-0.060	116.000	12.285	13.845	6.305	19.240	5.291	8.054	7.749	40.999	-0.030	0.044	0.048	116.000	22.685	17.030	30.810	20.020	7.906	8.658	7.901	62.467	0.316	NaN	-0.411	116.000	13.585	19.370	10.920	25.220	8.586	6.428	6.428	55.191	-0.296	0.027	0.323	116.000	17.680	22.490	20.605	27.105	11.004	5.464	4.780	52.597	0.078	-0.035	-0.055	116.000	16.510	22.945	16.250	27.365	11.452	4.428	4.427	50.700	-0.133	-0.065	0.069	116.000	12.025	18.460	6.565	27.105	8.569	10.225	10.206	87.453	0.042	0.035	NaN	NaN	NaN	NaN	NaN	NaN	NaN	NaN	NaN	NaN	NaN	NaN	NaN	NaN	NaN	NaN	NaN	NaN	NaN	NaN	NaN	NaN	NaN	NaN	NaN
138	117.000	18.135	6.760	20.670	5.850	4.921	2.693	1.425	7.014	-0.194	NaN	0.249	117.000	12.025	13.910	6.305	19.175	5.584	7.774	7.400	41.321	-0.350	-0.044	0.235	117.000	22.945	17.095	30.875	20.085	8.047	8.475	7.818	62.910	-0.083	0.084	0.266	117.000	13.650	19.370	10.920	25.220	8.527	6.456	6.454	55.035	0.027	NaN	-0.027	117.000	17.615	22.425	20.605	27.040	10.867	5.499	4.753	51.651	-0.027	-0.055	-0.090	117.000	16.510	23.010	16.250	27.365	11.455	4.363	4.363	49.973	-0.065	NaN	0.065	117.000	12.155	18.330	6.565	27.105	8.373	10.404	10.383	86.934	0.177	NaN	-0.179	NaN	NaN	NaN	NaN	NaN	NaN	NaN	NaN	NaN	NaN	NaN	NaN	NaN	NaN	NaN	NaN	NaN	NaN	NaN	NaN	NaN	NaN	NaN	NaN
139	118.000	18.200	6.760	20.605	5.850	4.844	2.571	1.375	6.663	-0.050	-0.061	0.061	118.000	12.090	13.975	6.305	19.175	5.698	7.779	7.467	42.550	0.067	NaN	-0.005	118.000	23.075	17.160	30.875	20.085	8.136	8.330	7.641	62.171	-0.177	NaN	0.145	118.000	13.650	19.825	10.985	25.155	9.056	5.959	5.949	53.873	-0.505	-0.087	0.407	118.000	17.615	22.490	20.605	26.975	10.992	5.390	4.588	50.434	-0.165	-0.054	0.054	118.000	16.575	22.945	16.250	27.365	11.458	4.432	4.431	50.776	0.069	NaN	-0.070	118.000	12.090	18.330	6.630	27.105	8.541	10.335	10.295	87.926	-0.088	-0.034	0.034	NaN	NaN	NaN	NaN	NaN	NaN	NaN	NaN	NaN	NaN	NaN	NaN	NaN	NaN	NaN	NaN	NaN	NaN	NaN	NaN	NaN	NaN	NaN	NaN
140	119.000	18.005	6.825	20.605	5.850	4.794	2.777	1.516	7.267	0.140	NaN	-0.205	119.000	11.115	14.365	6.305	19.175	6.512	6.802	6.434	41.895	-1.033	NaN	0.965	119.000	22.815	17.160	30.810	20.085	8.136	8.513	7.781	63.312	0.140	-0.061	-0.244	119.000	13.325	20.605	11.050	25.025	9.801	4.971	4.949	48.503	-1.000	-0.145	0.842	119.000	17.550	22.425	20.605	26.975	10.936	5.480	4.707	51.473	0.119	NaN	-0.090	119.000	16.575	22.880	16.250	27.365	11.382	4.497	4.494	51.144	0.062	NaN	-0.065	119.000	12.155	18.330	6.630	27.040	8.350	10.315	10.302	86.021	0.008	-0.055	-0.035	NaN	NaN	NaN	NaN	NaN	NaN	NaN	NaN	NaN	NaN	NaN	NaN	NaN	NaN	NaN	NaN	NaN	NaN	NaN	NaN	NaN	NaN	NaN	NaN
141	120.000	NaN	NaN	NaN	NaN	NaN	NaN	NaN	NaN	NaN	NaN	NaN	120.000	11.245	14.300	6.305	19.175	6.366	6.940	6.579	41.882	0.145	NaN	-0.138	120.000	22.880	17.095	30.810	20.085	8.139	8.475	7.817	63.620	0.036	NaN	0.038	120.000	13.260	20.930	11.050	25.090	10.127	4.711	4.680	47.396	-0.269	0.057	0.318	120.000	17.680	22.360	20.605	26.910	10.879	5.409	4.732	51.482	0.025	-0.055	0.016	120.000	16.575	22.880	16.250	27.365	11.382	4.497	4.494	51.144	NaN	NaN	NaN	120.000	12.220	18.265	6.630	27.105	8.259	10.459	10.447	86.283	0.145	0.055	-0.090	NaN	NaN	NaN	NaN	NaN	NaN	NaN	NaN	NaN	NaN	NaN	NaN	NaN	NaN	NaN	NaN	NaN	NaN	NaN	NaN	NaN	NaN	NaN	NaN
