 	T (0)	Base X (0)	Base Y (0)	Tip X (0)	Tip Y (0)	||[body,base]|| (0)	||[base,tip]||  (0)	||[base,tip]|| : [body,base] (0)	[base,tip] ? [body,base] (0)	?||[base,tip]|| : [body,base] (0)	||[tip(t-1),tip(t)]|| : [base,tip] (0)	||[base(t-1),base(t)]|| : [base,tip] (0)	T (1)	Base X (1)	Base Y (1)	Tip X (1)	Tip Y (1)	||[body,base]|| (1)	||[base,tip]||  (1)	||[base,tip]|| : [body,base] (1)	[base,tip] ? [body,base] (1)	?||[base,tip]|| : [body,base] (1)	||[tip(t-1),tip(t)]|| : [base,tip] (1)	||[base(t-1),base(t)]|| : [base,tip] (1)	T (2)	Base X (2)	Base Y (2)	Tip X (2)	Tip Y (2)	||[body,base]|| (2)	||[base,tip]||  (2)	||[base,tip]|| : [body,base] (2)	[base,tip] ? [body,base] (2)	?||[base,tip]|| : [body,base] (2)	||[tip(t-1),tip(t)]|| : [base,tip] (2)	||[base(t-1),base(t)]|| : [base,tip] (2)	T (3)	Base X (3)	Base Y (3)	Tip X (3)	Tip Y (3)	||[body,base]|| (3)	||[base,tip]||  (3)	||[base,tip]|| : [body,base] (3)	[base,tip] ? [body,base] (3)	?||[base,tip]|| : [body,base] (3)	||[tip(t-1),tip(t)]|| : [base,tip] (3)	||[base(t-1),base(t)]|| : [base,tip] (3)	T (4)	Base X (4)	Base Y (4)	Tip X (4)	Tip Y (4)	||[body,base]|| (4)	||[base,tip]||  (4)	||[base,tip]|| : [body,base] (4)	[base,tip] ? [body,base] (4)	?||[base,tip]|| : [body,base] (4)	||[tip(t-1),tip(t)]|| : [base,tip] (4)	||[base(t-1),base(t)]|| : [base,tip] (4)	T (5)	Base X (5)	Base Y (5)	Tip X (5)	Tip Y (5)	||[body,base]|| (5)	||[base,tip]||  (5)	||[base,tip]|| : [body,base] (5)	[base,tip] ? [body,base] (5)	?||[base,tip]|| : [body,base] (5)	||[tip(t-1),tip(t)]|| : [base,tip] (5)	||[base(t-1),base(t)]|| : [base,tip] (5)	T (6)	Base X (6)	Base Y (6)	Tip X (6)	Tip Y (6)	||[body,base]|| (6)	||[base,tip]||  (6)	||[base,tip]|| : [body,base] (6)	[base,tip] ? [body,base] (6)	?||[base,tip]|| : [body,base] (6)	||[tip(t-1),tip(t)]|| : [base,tip] (6)	||[base(t-1),base(t)]|| : [base,tip] (6)	T (7)	Base X (7)	Base Y (7)	Tip X (7)	Tip Y (7)	||[body,base]|| (7)	||[base,tip]||  (7)	||[base,tip]|| : [body,base] (7)	[base,tip] ? [body,base] (7)	?||[base,tip]|| : [body,base] (7)	||[tip(t-1),tip(t)]|| : [base,tip] (7)	||[base(t-1),base(t)]|| : [base,tip] (7)	T (8)	Base X (8)	Base Y (8)	Tip X (8)	Tip Y (8)	||[body,base]|| (8)	||[base,tip]||  (8)	||[base,tip]|| : [body,base] (8)	[base,tip] ? [body,base] (8)	?||[base,tip]|| : [body,base] (8)	||[tip(t-1),tip(t)]|| : [base,tip] (8)	||[base(t-1),base(t)]|| : [base,tip] (8)	T (9)	Base X (9)	Base Y (9)	Tip X (9)	Tip Y (9)	||[body,base]|| (9)	||[base,tip]||  (9)	||[base,tip]|| : [body,base] (9)	[base,tip] ? [body,base] (9)	?||[base,tip]|| : [body,base] (9)	||[tip(t-1),tip(t)]|| : [base,tip] (9)	||[base(t-1),base(t)]|| : [base,tip] (9)	T (10)	Base X (10)	Base Y (10)	Tip X (10)	Tip Y (10)	||[body,base]|| (10)	||[base,tip]||  (10)	||[base,tip]|| : [body,base] (10)	[base,tip] ? [body,base] (10)	?||[base,tip]|| : [body,base] (10)	||[tip(t-1),tip(t)]|| : [base,tip] (10)	||[base(t-1),base(t)]|| : [base,tip] (10)
1	-20.000	NaN	NaN	NaN	NaN	NaN	NaN	NaN	NaN	NaN	NaN	NaN	NaN	NaN	NaN	NaN	NaN	NaN	NaN	NaN	NaN	NaN	NaN	NaN	NaN	NaN	NaN	NaN	NaN	NaN	NaN	NaN	NaN	NaN	NaN	NaN	NaN	NaN	NaN	NaN	NaN	NaN	NaN	NaN	NaN	NaN	NaN	NaN	NaN	NaN	NaN	NaN	NaN	NaN	NaN	NaN	NaN	NaN	NaN	NaN	NaN	NaN	NaN	NaN	NaN	NaN	NaN	NaN	NaN	NaN	NaN	NaN	NaN	NaN	NaN	NaN	NaN	NaN	NaN	NaN	NaN	NaN	NaN	NaN	NaN	NaN	NaN	NaN	NaN	NaN	NaN	NaN	NaN	NaN	NaN	NaN	NaN	NaN	NaN	NaN	NaN	NaN	NaN	NaN	NaN	NaN	NaN	NaN	73.000	468.000	778.000	NaN	NaN	NaN	NaN	NaN	NaN	NaN	NaN	NaN	81.000	467.000	785.000	NaN	NaN	NaN	NaN	NaN	NaN	NaN	NaN	NaN
2	-19.000	NaN	NaN	NaN	NaN	NaN	NaN	NaN	NaN	NaN	NaN	NaN	NaN	NaN	NaN	NaN	NaN	NaN	NaN	NaN	NaN	NaN	NaN	NaN	NaN	NaN	NaN	NaN	NaN	NaN	NaN	NaN	NaN	NaN	NaN	NaN	NaN	NaN	NaN	NaN	NaN	NaN	NaN	NaN	NaN	NaN	NaN	NaN	NaN	NaN	NaN	NaN	NaN	NaN	NaN	NaN	NaN	NaN	NaN	NaN	NaN	NaN	NaN	NaN	NaN	NaN	NaN	NaN	NaN	NaN	NaN	NaN	NaN	NaN	NaN	NaN	NaN	NaN	NaN	NaN	NaN	NaN	NaN	NaN	NaN	NaN	NaN	NaN	NaN	NaN	NaN	NaN	NaN	NaN	NaN	NaN	NaN	NaN	NaN	NaN	NaN	NaN	NaN	NaN	NaN	NaN	NaN	NaN	74.000	467.000	777.000	NaN	NaN	NaN	NaN	NaN	NaN	NaN	NaN	NaN	82.000	468.000	784.000	NaN	NaN	NaN	NaN	NaN	NaN	NaN	NaN	NaN
3	-18.000	NaN	NaN	NaN	NaN	NaN	NaN	NaN	NaN	NaN	NaN	NaN	NaN	NaN	NaN	NaN	NaN	NaN	NaN	NaN	NaN	NaN	NaN	NaN	NaN	NaN	NaN	NaN	NaN	NaN	NaN	NaN	NaN	NaN	NaN	NaN	NaN	NaN	NaN	NaN	NaN	NaN	NaN	NaN	NaN	NaN	NaN	NaN	NaN	NaN	NaN	NaN	NaN	NaN	NaN	NaN	NaN	NaN	NaN	NaN	NaN	NaN	NaN	NaN	NaN	NaN	NaN	NaN	NaN	NaN	NaN	NaN	NaN	NaN	NaN	NaN	NaN	NaN	NaN	NaN	NaN	NaN	NaN	NaN	NaN	NaN	NaN	NaN	NaN	NaN	NaN	NaN	NaN	NaN	NaN	NaN	NaN	NaN	NaN	NaN	NaN	NaN	NaN	NaN	NaN	NaN	NaN	NaN	75.000	466.000	777.000	NaN	NaN	NaN	NaN	NaN	NaN	NaN	NaN	NaN	83.000	468.000	785.000	NaN	NaN	NaN	NaN	NaN	NaN	NaN	NaN	NaN
4	-17.000	NaN	NaN	NaN	NaN	NaN	NaN	NaN	NaN	NaN	NaN	NaN	NaN	NaN	NaN	NaN	NaN	NaN	NaN	NaN	NaN	NaN	NaN	NaN	NaN	NaN	NaN	NaN	NaN	NaN	NaN	NaN	NaN	NaN	NaN	NaN	NaN	NaN	NaN	NaN	NaN	NaN	NaN	NaN	NaN	NaN	NaN	NaN	NaN	NaN	NaN	NaN	NaN	NaN	NaN	NaN	NaN	NaN	NaN	NaN	NaN	NaN	NaN	NaN	NaN	NaN	NaN	NaN	NaN	NaN	NaN	NaN	NaN	NaN	NaN	NaN	NaN	NaN	NaN	NaN	NaN	NaN	NaN	NaN	NaN	NaN	NaN	NaN	NaN	NaN	NaN	NaN	NaN	NaN	NaN	NaN	NaN	NaN	NaN	NaN	NaN	NaN	NaN	NaN	NaN	NaN	NaN	NaN	76.000	467.000	778.000	NaN	NaN	NaN	NaN	NaN	NaN	NaN	NaN	NaN	84.000	467.000	785.000	NaN	NaN	NaN	NaN	NaN	NaN	NaN	NaN	NaN
5	-16.000	NaN	NaN	NaN	NaN	NaN	NaN	NaN	NaN	NaN	NaN	NaN	NaN	NaN	NaN	NaN	NaN	NaN	NaN	NaN	NaN	NaN	NaN	NaN	NaN	NaN	NaN	NaN	NaN	NaN	NaN	NaN	NaN	NaN	NaN	NaN	NaN	NaN	NaN	NaN	NaN	NaN	NaN	NaN	NaN	NaN	NaN	NaN	NaN	NaN	NaN	NaN	NaN	NaN	NaN	NaN	NaN	NaN	NaN	NaN	NaN	NaN	NaN	NaN	NaN	NaN	NaN	NaN	NaN	NaN	NaN	NaN	NaN	NaN	NaN	NaN	NaN	NaN	NaN	NaN	NaN	NaN	NaN	NaN	NaN	NaN	NaN	NaN	NaN	NaN	NaN	NaN	NaN	NaN	NaN	NaN	NaN	NaN	NaN	NaN	NaN	NaN	NaN	NaN	NaN	NaN	NaN	NaN	77.000	468.000	777.000	NaN	NaN	NaN	NaN	NaN	NaN	NaN	NaN	NaN	85.000	467.000	785.000	NaN	NaN	NaN	NaN	NaN	NaN	NaN	NaN	NaN
6	-15.000	NaN	NaN	NaN	NaN	NaN	NaN	NaN	NaN	NaN	NaN	NaN	NaN	NaN	NaN	NaN	NaN	NaN	NaN	NaN	NaN	NaN	NaN	NaN	NaN	NaN	NaN	NaN	NaN	NaN	NaN	NaN	NaN	NaN	NaN	NaN	NaN	NaN	NaN	NaN	NaN	NaN	NaN	NaN	NaN	NaN	NaN	NaN	NaN	NaN	NaN	NaN	NaN	NaN	NaN	NaN	NaN	NaN	NaN	NaN	NaN	NaN	NaN	NaN	NaN	NaN	NaN	NaN	NaN	NaN	NaN	NaN	NaN	NaN	NaN	NaN	NaN	NaN	NaN	NaN	NaN	NaN	NaN	NaN	NaN	NaN	NaN	NaN	NaN	NaN	NaN	NaN	NaN	NaN	NaN	NaN	NaN	NaN	NaN	NaN	NaN	NaN	NaN	NaN	NaN	NaN	NaN	NaN	78.000	467.000	778.000	NaN	NaN	NaN	NaN	NaN	NaN	NaN	NaN	NaN	86.000	467.000	785.000	NaN	NaN	NaN	NaN	NaN	NaN	NaN	NaN	NaN
7	-14.000	NaN	NaN	NaN	NaN	NaN	NaN	NaN	NaN	NaN	NaN	NaN	NaN	NaN	NaN	NaN	NaN	NaN	NaN	NaN	NaN	NaN	NaN	NaN	NaN	NaN	NaN	NaN	NaN	NaN	NaN	NaN	NaN	NaN	NaN	NaN	NaN	NaN	NaN	NaN	NaN	NaN	NaN	NaN	NaN	NaN	NaN	NaN	NaN	NaN	NaN	NaN	NaN	NaN	NaN	NaN	NaN	NaN	NaN	NaN	NaN	NaN	NaN	NaN	NaN	NaN	NaN	NaN	NaN	NaN	NaN	NaN	NaN	NaN	NaN	NaN	NaN	NaN	NaN	NaN	NaN	NaN	NaN	NaN	NaN	NaN	NaN	NaN	NaN	NaN	NaN	NaN	NaN	NaN	NaN	NaN	NaN	NaN	NaN	NaN	NaN	NaN	NaN	NaN	NaN	NaN	NaN	NaN	79.000	466.000	778.000	NaN	NaN	NaN	NaN	NaN	NaN	NaN	NaN	NaN	87.000	464.000	785.000	NaN	NaN	NaN	NaN	NaN	NaN	NaN	NaN	NaN
8	-13.000	NaN	NaN	NaN	NaN	NaN	NaN	NaN	NaN	NaN	NaN	NaN	NaN	NaN	NaN	NaN	NaN	NaN	NaN	NaN	NaN	NaN	NaN	NaN	NaN	NaN	NaN	NaN	NaN	NaN	NaN	NaN	NaN	NaN	NaN	NaN	NaN	NaN	NaN	NaN	NaN	NaN	NaN	NaN	NaN	NaN	NaN	NaN	NaN	NaN	NaN	NaN	NaN	NaN	NaN	NaN	NaN	NaN	NaN	NaN	NaN	NaN	NaN	NaN	NaN	NaN	NaN	NaN	NaN	NaN	NaN	NaN	NaN	NaN	NaN	NaN	NaN	NaN	NaN	NaN	NaN	NaN	NaN	NaN	NaN	NaN	NaN	NaN	NaN	NaN	NaN	NaN	NaN	NaN	NaN	NaN	NaN	NaN	NaN	NaN	NaN	NaN	NaN	NaN	NaN	NaN	NaN	NaN	80.000	466.000	778.000	NaN	NaN	NaN	NaN	NaN	NaN	NaN	NaN	NaN	88.000	466.000	785.000	NaN	NaN	NaN	NaN	NaN	NaN	NaN	NaN	NaN
9	-12.000	NaN	NaN	NaN	NaN	NaN	NaN	NaN	NaN	NaN	NaN	NaN	NaN	NaN	NaN	NaN	NaN	NaN	NaN	NaN	NaN	NaN	NaN	NaN	NaN	NaN	NaN	NaN	NaN	NaN	NaN	NaN	NaN	NaN	NaN	NaN	NaN	NaN	NaN	NaN	NaN	NaN	NaN	NaN	NaN	NaN	NaN	NaN	NaN	NaN	NaN	NaN	NaN	NaN	NaN	NaN	NaN	NaN	NaN	NaN	NaN	NaN	NaN	NaN	NaN	NaN	NaN	NaN	NaN	NaN	NaN	NaN	NaN	NaN	NaN	NaN	NaN	NaN	NaN	NaN	NaN	NaN	NaN	NaN	NaN	NaN	NaN	NaN	NaN	NaN	NaN	NaN	NaN	NaN	NaN	NaN	NaN	NaN	NaN	NaN	NaN	NaN	NaN	NaN	NaN	NaN	NaN	NaN	81.000	467.000	778.000	NaN	NaN	NaN	NaN	NaN	NaN	NaN	NaN	NaN	89.000	465.000	785.000	NaN	NaN	NaN	NaN	NaN	NaN	NaN	NaN	NaN
10	-11.000	NaN	NaN	NaN	NaN	NaN	NaN	NaN	NaN	NaN	NaN	NaN	NaN	NaN	NaN	NaN	NaN	NaN	NaN	NaN	NaN	NaN	NaN	NaN	NaN	NaN	NaN	NaN	NaN	NaN	NaN	NaN	NaN	NaN	NaN	NaN	NaN	NaN	NaN	NaN	NaN	NaN	NaN	NaN	NaN	NaN	NaN	NaN	NaN	NaN	NaN	NaN	NaN	NaN	NaN	NaN	NaN	NaN	NaN	NaN	NaN	NaN	NaN	NaN	NaN	NaN	NaN	NaN	NaN	NaN	NaN	NaN	NaN	NaN	NaN	NaN	NaN	NaN	NaN	NaN	NaN	NaN	NaN	NaN	NaN	NaN	NaN	NaN	NaN	NaN	NaN	NaN	NaN	NaN	NaN	NaN	NaN	NaN	NaN	NaN	NaN	NaN	NaN	NaN	NaN	NaN	NaN	NaN	82.000	467.000	777.000	NaN	NaN	NaN	NaN	NaN	NaN	NaN	NaN	NaN	90.000	464.000	784.000	NaN	NaN	NaN	NaN	NaN	NaN	NaN	NaN	NaN
11	-10.000	NaN	NaN	NaN	NaN	NaN	NaN	NaN	NaN	NaN	NaN	NaN	NaN	NaN	NaN	NaN	NaN	NaN	NaN	NaN	NaN	NaN	NaN	NaN	NaN	NaN	NaN	NaN	NaN	NaN	NaN	NaN	NaN	NaN	NaN	NaN	NaN	NaN	NaN	NaN	NaN	NaN	NaN	NaN	NaN	NaN	NaN	NaN	NaN	NaN	NaN	NaN	NaN	NaN	NaN	NaN	NaN	NaN	NaN	NaN	NaN	NaN	NaN	NaN	NaN	NaN	NaN	NaN	NaN	NaN	NaN	NaN	NaN	NaN	NaN	NaN	NaN	NaN	NaN	NaN	NaN	NaN	NaN	NaN	NaN	NaN	NaN	NaN	NaN	NaN	NaN	NaN	NaN	NaN	NaN	NaN	NaN	NaN	NaN	NaN	NaN	NaN	NaN	NaN	NaN	NaN	NaN	NaN	83.000	468.000	778.000	NaN	NaN	NaN	NaN	NaN	NaN	NaN	NaN	NaN	91.000	463.000	783.000	NaN	NaN	NaN	NaN	NaN	NaN	NaN	NaN	NaN
12	-9.000	NaN	NaN	NaN	NaN	NaN	NaN	NaN	NaN	NaN	NaN	NaN	NaN	NaN	NaN	NaN	NaN	NaN	NaN	NaN	NaN	NaN	NaN	NaN	NaN	NaN	NaN	NaN	NaN	NaN	NaN	NaN	NaN	NaN	NaN	NaN	NaN	NaN	NaN	NaN	NaN	NaN	NaN	NaN	NaN	NaN	NaN	NaN	NaN	NaN	NaN	NaN	NaN	NaN	NaN	NaN	NaN	NaN	NaN	NaN	NaN	NaN	NaN	NaN	NaN	NaN	NaN	NaN	NaN	NaN	NaN	NaN	NaN	NaN	NaN	NaN	NaN	NaN	NaN	NaN	NaN	NaN	NaN	NaN	NaN	NaN	NaN	NaN	NaN	NaN	NaN	NaN	NaN	NaN	NaN	NaN	NaN	NaN	NaN	NaN	NaN	NaN	NaN	NaN	NaN	NaN	NaN	NaN	84.000	467.000	778.000	NaN	NaN	NaN	NaN	NaN	NaN	NaN	NaN	NaN	92.000	464.000	783.000	NaN	NaN	NaN	NaN	NaN	NaN	NaN	NaN	NaN
13	-8.000	NaN	NaN	NaN	NaN	NaN	NaN	NaN	NaN	NaN	NaN	NaN	NaN	NaN	NaN	NaN	NaN	NaN	NaN	NaN	NaN	NaN	NaN	NaN	NaN	NaN	NaN	NaN	NaN	NaN	NaN	NaN	NaN	NaN	NaN	NaN	NaN	NaN	NaN	NaN	NaN	NaN	NaN	NaN	NaN	NaN	NaN	NaN	NaN	NaN	NaN	NaN	NaN	NaN	NaN	NaN	NaN	NaN	NaN	NaN	NaN	NaN	NaN	NaN	NaN	NaN	NaN	NaN	NaN	NaN	NaN	NaN	NaN	NaN	NaN	NaN	NaN	NaN	NaN	NaN	NaN	NaN	NaN	NaN	NaN	NaN	NaN	NaN	NaN	NaN	NaN	NaN	NaN	NaN	NaN	NaN	NaN	NaN	NaN	NaN	NaN	NaN	NaN	NaN	NaN	NaN	NaN	NaN	85.000	467.000	778.000	NaN	NaN	NaN	NaN	NaN	NaN	NaN	NaN	NaN	93.000	466.000	784.000	NaN	NaN	NaN	NaN	NaN	NaN	NaN	NaN	NaN
14	-7.000	NaN	NaN	NaN	NaN	NaN	NaN	NaN	NaN	NaN	NaN	NaN	NaN	NaN	NaN	NaN	NaN	NaN	NaN	NaN	NaN	NaN	NaN	NaN	NaN	NaN	NaN	NaN	NaN	NaN	NaN	NaN	NaN	NaN	NaN	NaN	NaN	NaN	NaN	NaN	NaN	NaN	NaN	NaN	NaN	NaN	NaN	NaN	NaN	NaN	NaN	NaN	NaN	NaN	NaN	NaN	NaN	NaN	NaN	NaN	NaN	NaN	NaN	NaN	NaN	NaN	NaN	NaN	NaN	NaN	NaN	NaN	NaN	NaN	NaN	NaN	NaN	NaN	NaN	NaN	NaN	NaN	NaN	NaN	NaN	NaN	NaN	NaN	NaN	NaN	NaN	NaN	NaN	NaN	NaN	NaN	NaN	NaN	NaN	NaN	NaN	NaN	NaN	NaN	NaN	NaN	NaN	NaN	86.000	467.000	778.000	NaN	NaN	NaN	NaN	NaN	NaN	NaN	NaN	NaN	94.000	466.000	784.000	NaN	NaN	NaN	NaN	NaN	NaN	NaN	NaN	NaN
15	-6.000	NaN	NaN	NaN	NaN	NaN	NaN	NaN	NaN	NaN	NaN	NaN	NaN	NaN	NaN	NaN	NaN	NaN	NaN	NaN	NaN	NaN	NaN	NaN	NaN	NaN	NaN	NaN	NaN	NaN	NaN	NaN	NaN	NaN	NaN	NaN	NaN	NaN	NaN	NaN	NaN	NaN	NaN	NaN	NaN	NaN	NaN	NaN	NaN	NaN	NaN	NaN	NaN	NaN	NaN	NaN	NaN	NaN	NaN	NaN	NaN	NaN	NaN	NaN	NaN	NaN	NaN	NaN	NaN	NaN	NaN	NaN	NaN	NaN	NaN	NaN	NaN	NaN	NaN	NaN	NaN	NaN	NaN	NaN	NaN	NaN	NaN	NaN	NaN	NaN	NaN	NaN	NaN	NaN	NaN	NaN	NaN	NaN	NaN	NaN	NaN	NaN	NaN	NaN	NaN	NaN	NaN	NaN	87.000	462.000	781.000	NaN	NaN	NaN	NaN	NaN	NaN	NaN	NaN	NaN	95.000	466.000	785.000	NaN	NaN	NaN	NaN	NaN	NaN	NaN	NaN	NaN
16	-5.000	NaN	NaN	NaN	NaN	NaN	NaN	NaN	NaN	NaN	NaN	NaN	NaN	NaN	NaN	NaN	NaN	NaN	NaN	NaN	NaN	NaN	NaN	NaN	NaN	NaN	NaN	NaN	NaN	NaN	NaN	NaN	NaN	NaN	NaN	NaN	NaN	NaN	NaN	NaN	NaN	NaN	NaN	NaN	NaN	NaN	NaN	NaN	NaN	NaN	NaN	NaN	NaN	NaN	NaN	NaN	NaN	NaN	NaN	NaN	NaN	NaN	NaN	NaN	NaN	NaN	NaN	NaN	NaN	NaN	NaN	NaN	NaN	NaN	NaN	NaN	NaN	NaN	NaN	NaN	NaN	NaN	NaN	NaN	NaN	NaN	NaN	NaN	NaN	NaN	NaN	NaN	NaN	NaN	NaN	NaN	NaN	NaN	NaN	NaN	NaN	NaN	NaN	NaN	NaN	NaN	NaN	NaN	88.000	466.000	778.000	NaN	NaN	NaN	NaN	NaN	NaN	NaN	NaN	NaN	96.000	466.000	785.000	NaN	NaN	NaN	NaN	NaN	NaN	NaN	NaN	NaN
17	-4.000	NaN	NaN	NaN	NaN	NaN	NaN	NaN	NaN	NaN	NaN	NaN	NaN	NaN	NaN	NaN	NaN	NaN	NaN	NaN	NaN	NaN	NaN	NaN	NaN	NaN	NaN	NaN	NaN	NaN	NaN	NaN	NaN	NaN	NaN	NaN	NaN	NaN	NaN	NaN	NaN	NaN	NaN	NaN	NaN	NaN	NaN	NaN	NaN	NaN	NaN	NaN	NaN	NaN	NaN	NaN	NaN	NaN	NaN	NaN	NaN	NaN	NaN	NaN	NaN	NaN	NaN	NaN	NaN	NaN	NaN	NaN	NaN	NaN	NaN	NaN	NaN	NaN	NaN	NaN	NaN	NaN	NaN	NaN	NaN	NaN	NaN	NaN	NaN	NaN	NaN	NaN	NaN	NaN	NaN	NaN	NaN	NaN	NaN	NaN	NaN	NaN	NaN	NaN	NaN	NaN	NaN	NaN	89.000	465.000	778.000	NaN	NaN	NaN	NaN	NaN	NaN	NaN	NaN	NaN	97.000	462.000	785.000	NaN	NaN	NaN	NaN	NaN	NaN	NaN	NaN	NaN
18	-3.000	NaN	NaN	NaN	NaN	NaN	NaN	NaN	NaN	NaN	NaN	NaN	NaN	NaN	NaN	NaN	NaN	NaN	NaN	NaN	NaN	NaN	NaN	NaN	NaN	NaN	NaN	NaN	NaN	NaN	NaN	NaN	NaN	NaN	NaN	NaN	NaN	NaN	NaN	NaN	NaN	NaN	NaN	NaN	NaN	NaN	NaN	NaN	NaN	NaN	NaN	NaN	NaN	NaN	NaN	NaN	NaN	NaN	NaN	NaN	NaN	NaN	NaN	NaN	NaN	NaN	NaN	NaN	NaN	NaN	NaN	NaN	NaN	NaN	NaN	NaN	NaN	NaN	NaN	NaN	NaN	NaN	NaN	NaN	NaN	NaN	NaN	NaN	NaN	NaN	NaN	NaN	NaN	NaN	NaN	NaN	NaN	NaN	NaN	NaN	NaN	NaN	NaN	NaN	NaN	NaN	NaN	NaN	90.000	463.000	778.000	NaN	NaN	NaN	NaN	NaN	NaN	NaN	NaN	NaN	98.000	461.000	785.000	NaN	NaN	NaN	NaN	NaN	NaN	NaN	NaN	NaN
19	-2.000	NaN	NaN	NaN	NaN	NaN	NaN	NaN	NaN	NaN	NaN	NaN	NaN	NaN	NaN	NaN	NaN	NaN	NaN	NaN	NaN	NaN	NaN	NaN	NaN	NaN	NaN	NaN	NaN	NaN	NaN	NaN	NaN	NaN	NaN	NaN	NaN	NaN	NaN	NaN	NaN	NaN	NaN	NaN	NaN	NaN	NaN	NaN	NaN	NaN	NaN	NaN	NaN	NaN	NaN	NaN	NaN	NaN	NaN	NaN	NaN	NaN	NaN	NaN	NaN	NaN	NaN	NaN	NaN	NaN	NaN	NaN	NaN	NaN	NaN	NaN	NaN	NaN	NaN	NaN	NaN	NaN	NaN	NaN	NaN	NaN	NaN	NaN	NaN	NaN	NaN	NaN	NaN	NaN	NaN	NaN	0.000	513.000	717.000	NaN	NaN	NaN	NaN	NaN	NaN	NaN	NaN	NaN	91.000	463.000	778.000	NaN	NaN	NaN	NaN	NaN	NaN	NaN	NaN	NaN	99.000	460.000	785.000	NaN	NaN	NaN	NaN	NaN	NaN	NaN	NaN	NaN
20	-1.000	NaN	NaN	NaN	NaN	NaN	NaN	NaN	NaN	NaN	NaN	NaN	NaN	NaN	NaN	NaN	NaN	NaN	NaN	NaN	NaN	NaN	NaN	NaN	NaN	NaN	NaN	NaN	NaN	NaN	NaN	NaN	NaN	NaN	NaN	NaN	NaN	NaN	NaN	NaN	NaN	NaN	NaN	NaN	NaN	NaN	NaN	NaN	NaN	NaN	NaN	NaN	NaN	NaN	NaN	NaN	NaN	NaN	NaN	NaN	NaN	NaN	NaN	NaN	NaN	NaN	NaN	NaN	NaN	NaN	NaN	NaN	NaN	NaN	NaN	NaN	NaN	NaN	NaN	NaN	NaN	NaN	NaN	NaN	NaN	NaN	NaN	NaN	NaN	NaN	NaN	NaN	NaN	NaN	NaN	NaN	1.000	511.000	717.000	NaN	NaN	NaN	NaN	NaN	NaN	NaN	NaN	NaN	92.000	463.000	778.000	NaN	NaN	NaN	NaN	NaN	NaN	NaN	NaN	NaN	100.000	462.000	787.000	NaN	NaN	NaN	NaN	NaN	NaN	NaN	NaN	NaN
21	0.000	46.150	44.330	45.890	42.510	3.604	1.838	1.247	4.495	NaN	NaN	NaN	0.000	29.965	48.100	28.990	48.295	13.944	0.994	0.986	13.752	NaN	NaN	NaN	0.000	31.135	50.310	17.290	52.585	13.132	14.031	13.983	183.631	NaN	NaN	NaN	0.000	35.620	55.250	35.230	55.770	11.583	0.650	0.643	7.444	NaN	NaN	NaN	0.000	33.865	53.885	29.705	56.810	12.079	5.085	5.084	61.415	NaN	NaN	NaN	0.000	32.565	52.390	22.555	58.110	12.475	11.529	11.489	143.329	NaN	NaN	NaN	0.000	43.225	52.130	44.265	59.995	5.047	7.933	7.666	38.688	NaN	NaN	NaN	0.000	41.730	52.195	38.025	66.495	5.505	14.772	14.613	80.448	NaN	NaN	NaN	2.000	33.280	46.930	33.150	46.865	10.986	0.145	0.131	1.437	0.131	NaN	NaN	93.000	30.615	50.895	30.420	51.025	13.290	0.234	0.221	2.941	0.221	NaN	NaN	101.000	30.355	51.350	30.290	51.480	14.116	0.145	0.098	1.382	0.098	NaN	NaN
22	1.000	46.150	44.265	45.890	42.510	3.654	1.774	1.212	4.428	-0.036	NaN	0.064	1.000	30.030	48.100	28.990	48.295	13.879	1.058	1.051	14.589	0.065	NaN	-0.064	1.000	31.070	50.310	17.290	52.585	13.195	13.967	13.922	183.699	-0.062	NaN	0.064	1.000	35.620	55.315	35.230	55.770	11.628	0.599	0.597	6.946	-0.045	NaN	0.049	1.000	33.475	53.885	29.705	56.745	12.404	4.732	4.720	58.542	-0.365	-0.039	0.311	1.000	32.370	52.455	22.490	58.175	12.680	11.416	11.369	144.157	-0.120	0.089	0.201	1.000	43.160	52.130	44.265	59.995	5.056	7.942	7.630	38.574	-0.036	NaN	-0.009	1.000	41.665	52.455	38.025	66.625	5.770	14.630	14.484	83.571	-0.130	0.126	0.268	3.000	33.540	46.865	33.215	46.735	10.600	0.350	0.329	3.486	0.198	-0.012	-0.217	94.000	30.615	50.960	30.420	51.025	13.340	0.206	0.205	2.738	-0.016	NaN	0.021	102.000	30.680	51.025	30.160	51.350	13.889	0.613	0.584	8.116	0.486	0.041	-0.448
23	2.000	46.215	44.330	45.890	42.510	3.355	1.849	1.292	4.335	0.080	NaN	-0.075	2.000	31.200	48.100	28.925	48.295	13.106	2.283	2.283	29.926	1.232	0.065	-1.166	2.000	30.810	50.310	17.290	52.585	13.842	13.710	13.676	189.305	-0.245	NaN	0.256	2.000	35.620	55.315	35.165	55.705	11.953	0.599	0.598	7.153	0.001	0.007	NaN	2.000	33.605	53.755	29.705	56.745	12.588	4.914	4.893	61.592	0.173	NaN	-0.182	2.000	32.240	52.520	22.360	58.305	13.207	11.449	11.388	150.393	0.019	0.178	0.145	2.000	43.095	52.260	44.265	59.995	5.330	7.823	7.290	38.853	-0.340	NaN	0.119	2.000	41.665	52.130	37.960	66.690	5.698	15.024	14.646	83.452	0.163	0.079	-0.315	4.000	33.540	46.865	33.215	46.670	10.598	0.379	0.330	3.494	8.530E-4	0.033	NaN	95.000	30.810	50.960	20.215	52.325	13.512	10.683	10.593	143.126	10.388	10.287	-0.193	103.000	30.420	51.090	30.160	51.415	13.591	0.416	0.335	4.555	-0.249	0.051	0.213
24	3.000	46.215	44.330	45.890	42.510	3.536	1.849	1.281	4.529	-0.011	NaN	NaN	3.000	30.615	48.100	28.860	48.230	13.551	1.760	1.760	23.846	-0.524	0.060	0.583	3.000	30.485	50.375	17.290	52.520	14.017	13.368	13.337	186.944	-0.339	-0.010	0.331	3.000	35.490	55.380	35.165	55.770	11.908	0.508	0.504	6.004	-0.094	0.050	0.133	3.000	33.605	53.755	32.955	54.795	12.409	1.226	1.102	13.672	-3.791	-3.376	NaN	3.000	32.370	52.520	22.295	58.435	12.916	11.683	11.618	150.059	0.230	0.122	-0.112	3.000	43.160	52.130	44.265	60.060	5.035	8.007	7.566	38.097	0.276	0.064	-0.120	3.000	41.665	52.195	38.025	66.755	5.581	15.008	14.667	81.864	0.021	0.047	0.063	5.000	33.475	46.800	33.150	46.605	10.600	0.379	0.331	3.507	0.001	0.089	0.089	96.000	30.615	50.960	20.215	52.325	13.260	10.489	10.398	137.874	-0.195	NaN	0.193	104.000	30.615	50.895	30.095	51.415	13.936	0.735	0.631	8.788	0.295	0.046	-0.276
25	4.000	46.215	44.330	45.890	42.510	3.484	1.849	1.266	4.411	-0.015	NaN	NaN	4.000	30.745	48.100	28.795	48.230	13.425	1.954	1.954	26.237	0.195	0.065	-0.130	4.000	30.485	50.375	17.290	52.585	14.032	13.379	13.348	187.294	0.011	0.011	NaN	4.000	35.555	55.315	35.165	55.770	11.861	0.599	0.596	7.073	0.092	NaN	-0.092	4.000	33.020	54.665	32.890	54.925	13.431	0.291	0.254	3.405	-0.848	0.145	1.076	4.000	32.370	52.520	22.230	58.500	12.943	11.772	11.710	151.559	0.092	0.089	NaN	4.000	43.030	52.130	44.330	60.190	5.126	8.164	7.590	38.904	0.024	0.139	-0.021	4.000	41.665	52.065	37.895	66.950	5.523	15.355	15.000	82.844	0.332	0.221	-0.126	6.000	33.670	46.735	33.085	46.475	10.340	0.640	0.593	6.130	0.262	0.112	-0.152	97.000	30.420	50.895	20.215	52.325	13.794	10.305	10.250	141.385	-0.148	NaN	0.184	105.000	30.290	51.155	30.030	51.415	13.939	0.368	0.319	4.445	-0.312	0.046	0.414
26	5.000	46.150	44.265	45.890	42.510	3.536	1.774	1.266	4.479	3.712E-4	NaN	0.074	5.000	30.875	48.100	28.665	48.230	13.231	2.214	2.214	29.288	0.259	0.130	-0.130	5.000	30.485	50.375	17.420	52.520	13.968	13.240	13.206	184.459	-0.143	-0.139	NaN	5.000	35.620	55.315	35.230	55.770	11.768	0.599	0.597	7.022	4.391E-4	-0.042	-0.042	5.000	33.345	54.275	32.825	54.860	12.890	0.783	0.757	9.760	0.504	-0.005	-0.507	5.000	32.175	52.650	22.165	58.500	13.116	11.594	11.543	151.390	-0.167	0.056	0.234	5.000	43.095	52.000	44.330	60.125	4.972	8.218	7.725	38.405	0.135	-0.064	-0.119	5.000	41.730	51.740	37.830	66.950	5.174	15.702	15.330	79.320	0.330	0.016	-0.331	7.000	33.670	46.735	33.085	46.475	10.535	0.640	0.593	6.245	-1.406E-4	NaN	NaN	98.000	29.835	50.895	20.215	52.325	14.378	9.726	9.687	139.273	-0.563	NaN	0.579	106.000	30.745	50.895	29.965	51.415	13.857	0.937	0.882	12.219	0.563	0.054	-0.523
27	6.000	46.085	44.200	45.890	42.510	3.536	1.701	1.252	4.428	-0.014	NaN	0.072	6.000	31.135	48.035	28.600	48.165	12.907	2.538	2.538	32.752	0.324	0.062	-0.263	6.000	30.355	50.375	17.355	52.520	14.047	13.176	13.139	184.561	-0.067	0.064	0.128	6.000	35.555	55.250	35.230	55.705	11.768	0.559	0.550	6.473	-0.047	-0.053	-0.015	6.000	33.605	53.820	32.760	54.990	12.404	1.443	1.346	16.697	0.589	0.143	-0.521	6.000	32.175	52.650	22.100	58.695	13.084	11.749	11.692	152.979	0.149	0.156	NaN	6.000	43.095	52.000	44.265	60.060	5.023	8.144	7.715	38.752	-0.010	-0.074	NaN	6.000	41.730	51.805	37.960	66.885	5.262	15.544	15.228	80.131	-0.102	-0.095	0.063	8.000	33.540	46.670	33.020	46.345	10.803	0.613	0.535	5.780	-0.058	0.124	0.145	99.000	29.445	50.895	20.215	52.325	14.568	9.340	9.310	135.623	-0.377	NaN	0.385	107.000	30.550	50.960	29.900	51.415	13.936	0.793	0.741	10.326	-0.141	0.053	0.197
28	7.000	46.085	44.200	45.890	42.510	3.425	1.701	1.304	4.466	0.052	NaN	NaN	7.000	31.200	48.035	28.535	48.100	13.037	2.666	2.662	34.708	0.125	0.063	-0.065	7.000	30.680	50.245	17.550	52.520	13.890	13.326	13.302	184.763	0.163	-0.192	-0.342	7.000	35.490	55.250	35.230	55.705	11.956	0.524	0.501	5.991	-0.049	NaN	0.032	7.000	33.540	53.885	32.760	54.925	12.658	1.300	1.218	15.413	-0.128	-0.052	0.091	7.000	32.175	52.650	22.165	58.695	13.261	11.694	11.625	154.162	-0.066	-0.056	NaN	7.000	43.160	52.195	44.265	59.800	5.239	7.685	7.234	37.902	-0.480	-0.257	0.202	7.000	41.730	52.065	38.155	66.950	5.581	15.308	14.930	83.330	-0.298	0.018	0.253	9.000	33.735	46.735	32.890	46.280	10.670	0.960	0.864	9.215	0.329	0.145	-0.203	100.000	29.705	50.895	20.215	52.325	14.441	9.597	9.561	138.073	0.251	NaN	-0.257	108.000	30.355	51.025	29.835	51.545	13.936	0.735	0.631	8.788	-0.110	0.138	0.184
29	8.000	46.085	44.070	45.955	42.510	3.580	1.565	1.296	4.639	-0.008	-0.005	0.130	8.000	31.070	48.035	28.470	48.100	13.287	2.601	2.599	34.531	-0.064	0.065	0.130	8.000	30.940	50.180	17.615	52.520	13.720	13.529	13.515	185.418	0.213	-0.064	-0.267	8.000	35.425	55.510	35.295	55.705	12.187	0.234	0.228	2.780	-0.273	-0.036	0.252	8.000	33.540	53.950	32.695	55.120	12.733	1.443	1.337	17.027	0.120	0.196	0.053	8.000	32.110	52.715	22.100	58.695	13.411	11.660	11.585	155.362	-0.041	0.056	0.089	8.000	43.225	52.195	44.200	59.540	5.126	7.409	6.962	35.684	-0.272	-0.266	0.009	8.000	41.730	51.870	38.285	67.015	5.354	15.532	14.912	79.836	-0.018	0.035	-0.190	10.000	33.930	46.735	32.825	46.280	10.475	1.195	1.124	11.771	0.260	0.060	-0.180	101.000	30.160	50.830	20.280	52.325	14.173	9.992	9.956	141.102	0.395	-0.064	-0.460	109.000	30.615	50.895	29.835	51.545	13.779	1.015	0.911	12.557	0.281	NaN	-0.283
30	9.000	46.085	44.070	45.955	42.510	3.548	1.565	1.310	4.648	0.014	NaN	NaN	9.000	31.590	48.035	28.340	48.100	12.833	3.251	3.247	41.671	0.648	0.130	-0.520	9.000	31.070	50.115	17.680	52.520	13.642	13.604	13.594	185.456	0.080	-0.064	-0.139	9.000	35.360	55.510	35.295	55.705	12.282	0.206	0.180	2.210	-0.048	NaN	0.021	9.000	33.670	53.820	32.695	55.055	12.609	1.573	1.479	18.645	0.141	-0.051	-0.183	9.000	32.175	52.715	22.100	58.760	13.411	11.749	11.671	156.515	0.086	0.033	-0.056	9.000	43.160	52.130	44.135	59.410	5.092	7.345	6.826	34.759	-0.136	-0.137	-0.073	9.000	41.665	52.260	38.220	67.080	5.758	15.215	14.682	84.542	-0.230	0.078	0.395	11.000	33.865	46.735	32.890	46.280	9.696	1.076	0.995	9.650	-0.128	-0.059	0.059	102.000	464.000	777.000	NaN	NaN	NaN	NaN	NaN	NaN	NaN	NaN	NaN	110.000	30.680	50.960	29.770	51.610	13.747	1.118	1.042	14.323	0.131	0.091	-0.015
31	10.000	46.085	44.135	45.890	42.510	3.491	1.637	1.328	4.635	0.018	0.008	-0.065	10.000	31.720	48.035	28.210	47.970	12.703	3.511	3.498	44.434	0.251	0.132	-0.130	10.000	31.070	50.115	17.680	52.520	13.642	13.604	13.594	185.456	NaN	NaN	NaN	10.000	35.360	55.510	35.295	55.705	12.282	0.206	0.180	2.210	NaN	NaN	NaN	10.000	33.540	53.950	32.630	55.120	12.788	1.482	1.391	17.787	-0.088	0.091	0.182	10.000	32.240	52.715	22.035	58.760	13.352	11.861	11.792	157.440	0.121	0.056	-0.056	10.000	43.225	52.065	44.135	59.605	5.013	7.595	7.119	35.693	0.293	0.194	-0.057	10.000	41.730	52.065	38.220	67.080	5.556	15.420	14.859	82.552	0.177	NaN	-0.205	12.000	33.995	46.800	32.825	46.345	10.147	1.255	1.187	12.041	0.191	0.037	-0.145	103.000	29.315	50.765	20.280	52.325	14.587	9.169	9.158	133.582	9.158	NaN	NaN	111.000	30.680	50.960	29.835	51.610	13.810	1.066	0.978	13.512	-0.063	-0.052	NaN
32	11.000	46.085	44.135	45.955	42.510	3.970	1.630	1.168	4.635	-0.160	-0.005	NaN	11.000	29.315	47.970	28.210	48.100	14.256	1.113	1.110	15.831	-2.387	0.015	2.381	11.000	31.135	50.115	17.680	52.520	12.755	13.668	13.648	174.078	0.054	NaN	-0.064	11.000	35.360	55.510	35.295	55.770	11.675	0.268	0.231	2.696	0.051	0.063	NaN	11.000	33.540	54.015	32.565	55.120	12.115	1.474	1.428	17.301	0.037	0.043	0.049	11.000	32.370	52.650	22.035	58.825	12.442	12.039	11.997	149.261	0.205	0.033	-0.145	11.000	43.225	52.130	44.070	59.540	4.951	7.458	7.339	36.331	0.219	-0.072	0.065	11.000	41.665	52.260	38.220	67.275	5.409	15.405	15.274	82.620	0.416	0.190	0.205	13.000	33.930	46.800	32.825	46.410	10.407	1.172	1.119	11.644	-0.068	-0.022	0.061	104.000	30.615	50.440	20.215	52.325	13.833	10.569	10.563	146.122	1.406	0.064	-1.337	112.000	30.550	50.895	29.835	51.610	13.920	1.011	0.865	12.037	-0.114	NaN	0.046
33	12.000	46.085	44.005	45.955	42.510	3.735	1.501	1.207	4.508	0.040	NaN	0.130	12.000	30.485	47.970	28.210	48.035	13.672	2.276	2.275	31.104	1.165	-0.002	-1.170	12.000	31.005	50.115	17.875	52.455	13.452	13.337	13.325	179.241	-0.323	-0.203	0.128	12.000	35.295	55.575	35.230	55.770	12.184	0.206	0.181	2.210	-0.050	0.021	0.082	12.000	33.540	54.015	32.565	55.185	12.603	1.523	1.453	18.315	0.025	0.050	NaN	12.000	32.370	52.650	22.100	58.825	12.970	11.983	11.915	154.542	-0.081	-0.056	NaN	12.000	43.225	52.130	44.070	59.605	5.023	7.523	7.198	36.158	-0.140	0.065	NaN	12.000	41.665	52.520	38.220	67.405	5.875	15.278	14.954	87.846	-0.320	0.127	0.253	14.000	33.995	46.800	32.825	46.475	10.537	1.214	1.181	12.447	0.062	-0.017	-0.063	105.000	29.835	50.700	20.280	52.325	14.270	9.692	9.677	138.086	-0.887	-0.064	0.813	113.000	30.355	51.025	29.705	51.610	13.952	0.874	0.774	10.803	-0.090	0.097	0.232
34	13.000	46.085	44.070	45.890	42.510	3.580	1.572	1.264	4.525	0.057	0.008	-0.064	13.000	30.940	47.905	28.275	48.165	13.409	2.678	2.675	35.870	0.400	-0.052	-0.459	13.000	31.200	50.180	18.005	52.390	13.466	13.379	13.356	179.858	0.032	-0.139	-0.182	13.000	35.360	55.575	35.295	55.770	12.279	0.206	0.181	2.218	-7.097E-4	-0.021	-0.021	13.000	33.475	54.145	32.630	55.120	12.892	1.290	1.237	15.954	-0.216	-0.092	0.141	13.000	32.435	52.650	22.100	58.695	13.088	11.973	11.915	155.941	-6.053E-4	-0.066	-0.056	13.000	43.225	52.065	44.070	59.475	4.999	7.458	7.040	35.190	-0.158	-0.129	-0.065	13.000	41.665	52.195	38.220	67.275	5.670	15.468	14.930	84.656	-0.024	-0.127	-0.317	15.000	33.930	46.800	32.760	46.475	9.888	1.214	1.182	11.686	6.814E-4	0.063	0.063	106.000	466.000	773.000	NaN	NaN	NaN	NaN	NaN	NaN	NaN	NaN	NaN	114.000	30.420	51.025	29.640	51.675	13.968	1.015	0.918	12.827	0.144	0.092	-0.050
35	14.000	46.085	44.070	45.890	42.510	3.488	1.572	1.308	4.563	0.044	NaN	NaN	14.000	31.460	47.905	28.275	48.165	13.085	3.196	3.194	41.798	0.519	NaN	-0.518	14.000	31.330	50.180	18.135	52.455	13.530	13.390	13.372	180.910	0.015	-0.117	-0.128	14.000	35.295	55.640	35.295	55.835	12.514	0.195	0.132	1.648	-0.049	0.065	0.065	14.000	33.410	54.210	32.500	55.185	13.146	1.334	1.290	16.959	0.053	0.136	0.092	14.000	32.435	52.585	22.100	58.760	13.239	12.039	11.954	158.264	0.040	0.033	-0.033	14.000	43.225	52.065	44.070	59.475	5.045	7.458	6.942	35.025	-0.098	NaN	NaN	14.000	41.665	52.065	38.220	67.275	5.652	15.595	14.862	84.001	-0.068	NaN	-0.127	16.000	33.865	46.800	32.825	46.475	9.950	1.090	1.050	10.448	-0.132	-0.062	0.062	107.000	30.485	50.570	20.280	52.325	13.910	10.355	10.344	143.882	10.344	NaN	NaN	115.000	30.615	51.025	29.640	51.675	13.889	1.172	1.106	15.358	0.187	NaN	-0.162
36	15.000	46.085	44.070	45.890	42.510	3.861	1.572	1.146	4.424	-0.162	NaN	NaN	15.000	29.965	47.905	28.210	48.165	13.863	1.774	1.766	24.484	-1.428	0.064	1.479	15.000	31.265	50.180	18.200	52.455	12.896	13.262	13.236	170.703	-0.135	-0.064	0.064	15.000	35.295	55.640	35.230	55.835	11.996	0.206	0.183	2.201	0.052	0.021	NaN	15.000	33.475	54.145	32.500	55.250	12.457	1.474	1.426	17.762	0.136	0.049	-0.092	15.000	32.500	52.455	22.035	58.825	12.475	12.251	12.176	151.897	0.221	0.089	-0.123	15.000	43.160	52.130	44.135	59.475	4.983	7.409	7.155	35.651	0.213	0.009	0.056	15.000	41.665	52.195	38.415	67.145	5.445	15.299	15.021	81.796	0.159	-0.168	0.127	17.000	33.800	46.800	32.825	46.540	10.208	1.009	0.981	10.017	-0.069	-0.017	0.063	108.000	30.095	50.505	20.280	52.325	14.074	9.982	9.980	140.456	-0.364	NaN	0.372	116.000	30.680	50.895	29.445	51.740	13.920	1.496	1.401	19.498	0.295	0.198	-0.127
37	16.000	46.085	44.070	45.890	42.510	3.809	1.572	1.135	4.322	-0.011	NaN	NaN	16.000	29.900	47.970	28.210	48.295	13.936	1.721	1.707	23.783	-0.059	0.025	0.076	16.000	31.135	50.245	18.200	52.455	13.053	13.122	13.088	170.846	-0.148	NaN	0.139	16.000	35.295	55.640	35.295	55.835	12.042	0.195	0.138	1.660	-0.046	3.980E-18	NaN	16.000	33.410	54.210	32.435	55.250	12.584	1.426	1.391	17.508	-0.035	0.044	0.092	16.000	32.500	52.455	22.035	58.825	12.503	12.251	12.182	152.311	0.006	NaN	NaN	16.000	43.160	51.805	44.070	59.345	4.725	7.595	7.343	34.696	0.188	-0.137	-0.323	16.000	41.665	52.260	38.415	67.080	5.565	15.172	14.928	83.072	-0.094	-0.063	0.063	18.000	33.670	46.865	32.890	46.605	10.531	0.822	0.783	8.247	-0.198	-0.082	0.103	109.000	30.290	50.375	20.280	52.325	13.984	10.198	10.198	142.611	0.218	NaN	-0.216	117.000	30.680	50.895	29.315	51.805	13.857	1.641	1.543	21.383	0.142	0.144	NaN
38	17.000	46.085	44.005	45.890	42.510	3.696	1.508	1.126	4.162	-0.009	NaN	0.064	17.000	30.355	47.970	28.145	48.490	13.680	2.270	2.240	30.640	0.533	0.108	-0.443	17.000	31.005	50.180	18.200	52.455	13.369	13.006	12.982	173.563	-0.106	NaN	0.117	17.000	35.360	55.640	35.295	55.835	12.180	0.206	0.183	2.235	0.046	NaN	-0.021	17.000	33.345	54.275	32.370	55.315	12.872	1.426	1.390	17.897	-9.460E-4	0.092	0.092	17.000	32.630	52.390	22.035	58.890	12.562	12.430	12.352	155.163	0.170	0.034	-0.145	17.000	43.030	52.260	44.070	59.345	5.291	7.161	6.772	35.828	-0.571	NaN	0.431	17.000	41.665	52.065	38.350	67.015	5.525	15.313	14.947	82.582	0.019	-0.049	-0.190	19.000	33.605	46.800	32.955	46.605	10.662	0.679	0.653	6.967	-0.130	-0.062	0.081	110.000	30.290	50.375	20.280	52.325	13.997	10.198	10.198	142.737	-2.957E-4	NaN	NaN	118.000	30.680	50.960	29.315	51.805	13.857	1.605	1.528	21.167	-0.016	NaN	0.034
39	18.000	46.085	44.070	45.890	42.510	3.480	1.572	1.206	4.195	0.080	NaN	-0.064	18.000	30.745	47.970	28.080	48.490	13.490	2.715	2.696	36.365	0.456	0.064	-0.383	18.000	30.940	50.245	18.135	52.455	13.652	12.994	12.963	176.977	-0.019	0.064	0.075	18.000	35.360	55.640	35.230	55.835	12.365	0.234	0.229	2.835	0.046	0.036	NaN	18.000	33.345	54.210	32.240	55.380	13.034	1.609	1.568	20.436	0.178	0.137	-0.047	18.000	32.370	52.650	21.970	59.020	13.112	12.196	12.130	159.054	-0.222	0.123	0.358	18.000	43.095	52.130	44.070	59.345	5.253	7.281	6.848	35.972	0.076	NaN	-0.120	18.000	41.665	52.065	38.350	67.275	5.668	15.567	15.087	85.518	0.140	0.254	NaN	20.000	33.670	46.800	33.020	46.540	10.600	0.700	0.658	6.971	0.004	-0.036	-0.060	111.000	30.355	50.440	20.280	52.325	14.010	10.250	10.248	143.570	0.050	NaN	-0.052	119.000	30.810	50.960	29.185	51.870	13.810	1.862	1.798	24.835	0.271	0.145	-0.113
40	19.000	46.085	44.135	45.890	42.575	3.390	1.572	1.211	4.107	0.006	-0.064	-0.064	19.000	30.810	47.970	27.950	48.490	13.490	2.907	2.890	38.988	0.194	0.128	-0.064	19.000	30.810	50.245	18.135	52.455	13.842	12.866	12.840	177.725	-0.123	NaN	0.128	19.000	35.295	55.640	35.165	55.900	12.458	0.291	0.274	3.414	0.045	0.087	0.029	19.000	33.215	54.405	32.110	55.510	13.305	1.563	1.533	20.398	-0.035	0.184	0.230	19.000	32.435	52.650	21.840	59.150	13.112	12.430	12.362	162.096	0.232	0.179	-0.055	19.000	43.030	52.195	44.070	59.475	5.345	7.354	6.843	36.572	-0.006	0.129	0.055	19.000	41.665	52.195	38.350	67.470	5.814	15.631	15.145	88.049	0.058	0.191	0.127	21.000	33.670	46.735	33.085	46.540	10.537	0.617	0.592	6.236	-0.066	-0.062	0.021	112.000	30.355	50.440	20.410	52.325	14.010	10.122	10.120	141.787	-0.127	-0.128	NaN	120.000	30.875	50.960	29.185	51.935	13.747	1.951	1.878	25.815	0.080	0.032	-0.056
41	20.000	46.085	44.200	45.955	42.575	3.445	1.630	1.311	4.517	0.100	-0.005	-0.065	20.000	31.005	47.970	27.885	48.425	13.287	3.153	3.143	41.756	0.253	0.055	-0.193	20.000	30.810	50.245	18.135	52.455	13.812	12.866	12.847	177.437	0.007	NaN	NaN	20.000	35.230	55.640	35.165	55.900	12.415	0.268	0.226	2.801	-0.048	NaN	0.016	20.000	33.215	54.405	32.045	55.640	13.233	1.701	1.656	21.919	0.123	0.139	NaN	20.000	32.370	52.650	21.840	59.215	13.116	12.409	12.316	161.526	-0.047	0.034	0.055	20.000	42.965	52.260	44.070	59.410	5.297	7.235	6.660	35.279	-0.183	-0.064	0.054	20.000	41.665	52.130	38.285	67.470	5.640	15.708	15.171	85.565	0.026	0.014	-0.063	22.000	33.865	46.670	33.150	46.410	10.287	0.761	0.729	7.495	0.137	-0.017	-0.161	113.000	29.965	50.635	20.475	52.260	14.242	9.628	9.618	136.970	-0.503	-0.075	0.417	NaN	NaN	NaN	NaN	NaN	NaN	NaN	NaN	NaN	NaN	NaN	NaN
42	21.000	46.085	44.265	45.890	42.575	3.425	1.701	1.304	4.466	-0.007	0.007	-0.065	21.000	31.135	48.035	27.755	48.425	13.097	3.402	3.399	44.515	0.256	0.129	-0.122	21.000	30.680	50.245	18.070	52.455	13.875	12.802	12.784	177.382	-0.063	0.064	0.128	21.000	35.035	55.770	34.970	55.965	12.599	0.206	0.181	2.282	-0.045	0.123	0.185	21.000	33.280	54.405	31.915	55.835	13.124	1.977	1.929	25.316	0.273	0.231	-0.045	21.000	32.435	52.715	21.775	59.345	13.025	12.554	12.474	162.477	0.158	0.124	-0.021	21.000	43.030	52.260	44.135	59.605	5.267	7.428	6.916	36.424	0.256	0.203	0.010	21.000	41.600	52.455	38.155	66.950	5.930	14.899	14.538	86.215	-0.633	-0.476	0.331	23.000	33.540	46.475	33.020	46.410	10.684	0.524	0.523	5.590	-0.205	0.129	0.347	114.000	30.160	50.700	20.410	52.260	14.143	9.874	9.851	139.324	0.233	0.064	-0.182	NaN	NaN	NaN	NaN	NaN	NaN	NaN	NaN	NaN	NaN	NaN	NaN
43	22.000	46.150	44.265	45.890	42.575	3.606	1.710	1.256	4.529	-0.048	NaN	-0.010	22.000	31.525	47.970	27.495	48.360	12.630	4.049	4.046	51.097	0.647	0.253	-0.394	22.000	30.550	50.375	18.135	52.455	13.939	12.588	12.566	175.147	-0.218	-0.064	0.150	22.000	34.905	55.900	34.905	56.030	12.646	0.130	0.089	1.124	-0.092	0.065	0.130	22.000	33.410	54.210	31.655	56.030	12.783	2.528	2.463	31.480	0.534	0.321	-0.231	22.000	32.435	52.650	21.710	59.540	12.884	12.747	12.625	162.654	0.151	0.160	-0.035	22.000	43.030	52.065	44.200	59.605	4.935	7.630	7.087	34.975	0.171	0.010	-0.193	22.000	41.600	52.715	38.285	66.755	6.020	14.426	14.130	85.062	-0.408	-0.220	0.253	24.000	33.800	46.605	33.020	46.345	10.291	0.822	0.795	8.180	0.272	0.021	-0.288	115.000	30.355	50.570	20.410	52.260	14.037	10.088	10.077	141.449	0.226	NaN	-0.214	NaN	NaN	NaN	NaN	NaN	NaN	NaN	NaN	NaN	NaN	NaN	NaN
44	23.000	46.150	44.200	45.890	42.575	3.570	1.646	1.219	4.352	-0.037	NaN	0.064	23.000	31.070	48.035	27.300	48.360	13.157	3.784	3.783	49.775	-0.263	0.194	0.459	23.000	30.680	50.375	18.135	52.455	13.890	12.716	12.688	176.233	0.122	NaN	-0.128	23.000	34.905	55.835	34.905	56.030	12.694	0.195	0.133	1.686	0.044	NaN	-0.065	23.000	33.410	54.210	31.655	56.160	12.873	2.623	2.534	32.625	0.072	0.097	NaN	23.000	32.305	52.585	21.710	59.540	13.061	12.674	12.522	163.550	-0.103	NaN	0.073	23.000	43.095	52.130	44.200	59.475	5.062	7.428	6.927	35.063	-0.160	-0.129	0.074	23.000	41.665	52.325	38.155	66.430	5.727	14.535	14.202	81.327	0.071	-0.284	-0.394	25.000	33.735	46.605	32.955	46.280	10.355	0.845	0.799	8.273	0.004	0.085	0.060	116.000	30.615	50.505	20.410	52.260	13.896	10.355	10.346	143.768	0.269	NaN	-0.267	NaN	NaN	NaN	NaN	NaN	NaN	NaN	NaN	NaN	NaN	NaN	NaN
45	24.000	46.150	44.265	45.890	42.575	3.642	1.710	1.239	4.512	0.020	NaN	-0.064	24.000	31.460	48.035	27.040	48.360	12.634	4.432	4.432	55.990	0.649	0.259	-0.389	24.000	30.420	50.310	18.135	52.455	13.988	12.471	12.457	174.243	-0.231	NaN	0.245	24.000	34.905	55.835	34.775	56.030	12.554	0.234	0.228	2.865	0.095	0.072	NaN	24.000	33.345	54.210	31.655	56.355	12.783	2.731	2.585	33.044	0.051	0.153	0.040	24.000	31.915	52.975	21.710	59.540	13.434	12.134	12.029	161.594	-0.493	NaN	0.539	24.000	43.095	52.130	44.135	59.410	4.972	7.354	6.935	34.476	0.008	-0.074	NaN	24.000	41.600	52.650	38.155	66.365	5.934	14.141	13.904	82.502	-0.297	-0.063	0.331	26.000	33.930	46.605	32.890	46.150	10.096	1.135	1.067	10.774	0.268	0.112	-0.179	117.000	30.550	50.570	20.410	52.260	13.910	10.280	10.266	142.805	-0.080	NaN	0.075	NaN	NaN	NaN	NaN	NaN	NaN	NaN	NaN	NaN	NaN	NaN	NaN
46	25.000	46.215	44.330	45.890	42.510	3.627	1.849	1.275	4.626	0.037	0.064	-0.075	25.000	31.005	48.035	26.780	48.425	13.088	4.243	4.241	55.504	-0.191	0.265	0.453	25.000	30.355	50.440	18.070	52.455	14.080	12.449	12.422	174.907	-0.035	0.064	0.085	25.000	34.840	55.835	34.775	56.030	12.602	0.206	0.180	2.273	-0.048	NaN	0.021	25.000	33.410	54.080	31.460	56.550	12.658	3.147	2.974	37.645	0.389	0.274	-0.142	25.000	32.370	52.650	21.580	59.670	12.884	12.873	12.738	164.116	0.709	0.180	-0.559	25.000	43.095	52.065	44.070	59.345	4.908	7.345	6.941	34.066	0.007	-0.073	-0.064	25.000	41.600	52.520	38.155	66.170	5.816	14.078	13.821	80.376	-0.083	-0.189	-0.126	27.000	33.865	46.540	32.760	46.085	10.165	1.195	1.134	11.530	0.067	0.145	0.085	118.000	30.485	50.570	20.410	52.260	13.960	10.216	10.205	142.467	-0.061	NaN	0.064	NaN	NaN	NaN	NaN	NaN	NaN	NaN	NaN	NaN	NaN	NaN	NaN
47	26.000	46.215	44.395	45.890	42.510	3.614	1.913	1.293	4.673	0.017	NaN	-0.064	26.000	31.070	48.035	26.520	48.490	12.958	4.573	4.569	59.209	0.328	0.265	-0.065	26.000	30.290	50.440	17.940	52.455	14.080	12.513	12.486	175.798	0.063	0.128	0.064	26.000	34.840	55.835	34.710	56.030	12.554	0.234	0.228	2.865	0.048	0.036	NaN	26.000	33.540	54.015	31.265	56.680	12.458	3.504	3.357	41.823	0.383	0.225	-0.134	26.000	32.435	52.585	21.580	59.670	12.739	12.963	12.824	163.355	0.086	NaN	-0.090	26.000	43.095	52.195	44.070	59.345	5.023	7.216	6.855	34.434	-0.086	NaN	0.129	26.000	41.470	53.430	38.155	65.975	6.675	12.976	12.864	85.869	-0.957	-0.189	0.913	28.000	33.865	46.540	32.760	46.020	10.100	1.221	1.139	11.505	0.005	0.028	NaN	119.000	30.680	50.570	20.410	52.260	13.847	10.408	10.393	143.904	0.187	NaN	-0.192	NaN	NaN	NaN	NaN	NaN	NaN	NaN	NaN	NaN	NaN	NaN	NaN
48	27.000	46.150	44.330	45.890	42.575	3.627	1.774	1.261	4.576	-0.031	-0.064	0.074	27.000	30.680	47.970	26.195	48.555	13.344	4.523	4.510	60.181	-0.059	0.331	0.378	27.000	30.225	50.440	17.875	52.520	14.143	12.524	12.501	176.808	0.015	0.075	0.064	27.000	34.905	55.575	34.710	55.965	12.330	0.436	0.407	5.019	0.179	-0.058	-0.262	27.000	33.540	54.015	31.200	56.810	12.458	3.645	3.482	43.382	0.125	0.141	NaN	27.000	32.305	52.650	21.645	59.605	12.884	12.728	12.593	162.244	-0.231	-0.090	0.144	27.000	43.095	52.065	44.070	59.215	4.895	7.216	6.844	33.504	-0.011	-0.129	-0.129	27.000	41.470	53.885	38.155	65.715	7.098	12.286	12.234	86.836	-0.630	-0.250	0.438	29.000	33.995	46.605	32.565	45.955	10.031	1.571	1.469	14.737	0.330	0.204	-0.145	120.000	30.615	50.635	20.410	52.260	13.924	10.334	10.313	143.599	-0.080	NaN	0.074	NaN	NaN	NaN	NaN	NaN	NaN	NaN	NaN	NaN	NaN	NaN	NaN
49	28.000	46.150	44.265	45.955	42.575	3.718	1.701	1.243	4.622	-0.018	-0.007	0.065	28.000	30.550	47.970	25.805	48.685	13.409	4.799	4.776	64.047	0.266	0.405	0.129	28.000	30.160	50.440	17.745	52.520	14.143	12.588	12.565	177.704	0.063	0.128	0.064	28.000	34.905	55.575	34.710	55.965	12.282	0.436	0.408	5.007	5.554E-4	NaN	NaN	28.000	33.410	54.210	30.940	57.005	12.620	3.730	3.601	45.448	0.119	0.318	0.232	28.000	32.370	52.650	21.710	59.475	12.766	12.658	12.546	160.157	-0.047	-0.125	-0.055	28.000	43.095	52.130	44.005	59.085	4.948	7.014	6.697	33.137	-0.147	-0.137	0.064	28.000	41.470	53.755	38.155	65.520	6.953	12.223	12.175	84.661	-0.058	-0.188	-0.125	30.000	33.865	46.475	32.500	45.955	10.230	1.461	1.398	14.302	-0.071	0.061	0.168	NaN	NaN	NaN	NaN	NaN	NaN	NaN	NaN	NaN	NaN	NaN	NaN	NaN	NaN	NaN	NaN	NaN	NaN	NaN	NaN	NaN	NaN	NaN	NaN
50	29.000	46.150	44.265	45.890	42.510	3.680	1.774	1.274	4.690	0.031	0.074	NaN	29.000	30.225	48.035	25.545	48.750	13.802	4.734	4.713	65.048	-0.063	0.267	0.331	29.000	30.225	50.505	17.615	52.455	14.158	12.760	12.721	180.103	0.156	0.119	-0.054	29.000	34.905	55.575	34.710	55.965	12.330	0.436	0.407	5.019	-5.554E-4	NaN	NaN	29.000	33.540	54.015	30.875	57.135	12.458	4.103	3.931	48.980	0.330	0.141	-0.233	29.000	32.370	52.650	21.775	59.280	12.825	12.498	12.401	159.042	-0.145	-0.159	NaN	29.000	43.095	52.065	44.005	59.085	4.895	7.079	6.728	32.938	0.031	NaN	-0.064	29.000	41.600	52.585	38.155	65.260	5.847	13.135	12.970	75.843	0.795	-0.251	-1.163	31.000	33.865	46.540	32.500	45.825	10.226	1.541	1.408	14.395	0.010	0.060	-0.030	NaN	NaN	NaN	NaN	NaN	NaN	NaN	NaN	NaN	NaN	NaN	NaN	NaN	NaN	NaN	NaN	NaN	NaN	NaN	NaN	NaN	NaN	NaN	NaN
51	30.000	46.215	44.395	45.890	42.575	3.523	1.849	1.246	4.390	-0.028	-0.064	-0.139	30.000	30.550	48.035	25.285	48.750	13.546	5.313	5.299	71.787	0.586	0.258	-0.322	30.000	30.355	50.505	17.615	52.455	14.110	12.888	12.842	181.193	0.121	NaN	-0.129	30.000	34.970	55.575	34.580	55.900	12.374	0.508	0.507	6.274	0.100	0.058	-0.050	30.000	33.410	54.145	30.940	57.330	12.728	4.031	3.809	48.482	-0.122	0.114	0.182	30.000	32.305	52.650	21.775	59.345	12.970	12.478	12.370	160.440	-0.031	0.035	0.055	30.000	43.160	52.065	44.005	59.150	4.959	7.135	6.810	33.770	0.081	0.065	0.008	30.000	41.730	52.065	38.220	65.130	5.408	13.528	13.297	71.905	0.327	-0.142	-0.536	32.000	33.865	46.540	32.370	45.825	10.161	1.657	1.538	15.624	0.130	0.117	NaN	NaN	NaN	NaN	NaN	NaN	NaN	NaN	NaN	NaN	NaN	NaN	NaN	NaN	NaN	NaN	NaN	NaN	NaN	NaN	NaN	NaN	NaN	NaN	NaN
52	31.000	46.150	44.265	45.890	42.510	3.589	1.774	1.280	4.593	0.034	0.064	0.138	31.000	30.485	48.035	25.090	48.750	13.611	5.442	5.429	73.895	0.130	0.193	0.064	31.000	30.355	50.505	17.615	52.455	14.110	12.888	12.842	181.193	NaN	NaN	NaN	31.000	34.905	55.510	34.515	56.030	12.378	0.650	0.638	7.901	0.131	0.143	-0.013	31.000	33.475	53.950	31.200	56.745	12.568	3.604	3.421	42.998	-0.388	-0.618	-0.192	31.000	32.175	52.780	21.775	59.410	13.143	12.334	12.232	160.770	-0.138	0.035	0.180	31.000	43.095	52.065	44.005	59.150	4.972	7.143	6.769	33.652	-0.041	NaN	-0.008	31.000	41.665	52.520	38.285	65.065	5.847	12.992	12.825	74.994	-0.472	-0.080	0.456	33.000	33.540	46.475	32.370	45.825	10.489	1.338	1.212	12.709	-0.326	NaN	0.316	NaN	NaN	NaN	NaN	NaN	NaN	NaN	NaN	NaN	NaN	NaN	NaN	NaN	NaN	NaN	NaN	NaN	NaN	NaN	NaN	NaN	NaN	NaN	NaN
53	32.000	46.215	44.330	45.890	42.575	3.614	1.785	1.190	4.301	-0.090	-0.064	-0.076	32.000	30.615	48.035	24.830	48.750	13.417	5.829	5.819	78.065	0.390	0.258	-0.129	32.000	30.355	50.505	17.615	52.520	14.047	12.898	12.856	180.581	0.014	0.010	NaN	32.000	35.035	55.510	34.385	55.965	12.235	0.793	0.786	9.616	0.148	0.069	-0.107	32.000	33.475	54.015	31.330	56.680	12.548	3.421	3.249	40.775	-0.172	-0.132	0.051	32.000	32.110	52.845	21.840	59.215	13.171	12.085	12.010	158.184	-0.222	-0.158	0.089	32.000	43.095	52.130	44.070	59.215	5.023	7.152	6.791	34.113	0.022	0.073	0.064	32.000	41.730	52.325	38.285	65.065	5.616	13.198	13.043	73.257	0.218	NaN	-0.205	34.000	33.670	46.540	32.305	45.890	10.355	1.512	1.403	14.530	0.192	0.031	-0.145	NaN	NaN	NaN	NaN	NaN	NaN	NaN	NaN	NaN	NaN	NaN	NaN	NaN	NaN	NaN	NaN	NaN	NaN	NaN	NaN	NaN	NaN	NaN	NaN
54	33.000	46.215	44.330	45.890	42.510	3.614	1.849	1.241	4.487	0.051	0.064	NaN	33.000	31.070	48.035	24.700	48.750	12.963	6.410	6.403	83.000	0.585	0.129	-0.452	33.000	30.355	50.440	17.680	52.455	14.032	12.834	12.797	179.563	-0.059	-0.074	-0.010	33.000	34.970	55.510	34.450	56.095	12.282	0.783	0.779	9.565	-0.007	0.054	0.043	33.000	33.475	54.145	31.395	56.550	12.620	3.180	3.061	38.629	-0.188	-0.141	0.098	33.000	31.980	52.910	22.035	58.825	13.316	11.571	11.522	153.422	-0.489	-0.367	0.145	33.000	43.225	52.000	44.070	59.020	4.873	7.071	6.794	33.107	0.003	-0.194	-0.114	33.000	41.730	52.325	38.285	65.065	5.616	13.198	13.043	73.257	NaN	NaN	NaN	35.000	33.995	46.735	32.370	46.020	10.020	1.775	1.656	16.592	0.253	-0.112	-0.376	NaN	NaN	NaN	NaN	NaN	NaN	NaN	NaN	NaN	NaN	NaN	NaN	NaN	NaN	NaN	NaN	NaN	NaN	NaN	NaN	NaN	NaN	NaN	NaN
55	34.000	46.215	44.395	45.890	42.510	3.563	1.913	1.277	4.550	0.036	NaN	-0.064	34.000	31.200	48.035	24.635	48.815	12.833	6.611	6.602	84.724	0.199	0.072	-0.129	34.000	30.225	50.375	17.745	52.455	14.143	12.652	12.628	178.599	-0.169	-0.064	0.118	34.000	35.035	55.575	34.385	56.095	12.279	0.832	0.830	10.191	0.051	0.051	-0.010	34.000	33.475	54.145	31.525	56.485	12.620	3.046	2.917	36.808	-0.144	-0.133	NaN	34.000	32.045	52.845	22.165	58.630	13.230	11.449	11.405	150.879	-0.117	-0.211	-0.089	34.000	43.160	51.870	44.005	58.565	4.756	6.748	6.438	30.619	-0.356	-0.460	-0.137	34.000	41.600	53.040	38.285	65.065	6.325	12.474	12.382	78.319	-0.661	NaN	0.724	36.000	33.865	46.735	32.240	45.955	10.147	1.803	1.654	16.782	-0.002	0.145	0.117	NaN	NaN	NaN	NaN	NaN	NaN	NaN	NaN	NaN	NaN	NaN	NaN	NaN	NaN	NaN	NaN	NaN	NaN	NaN	NaN	NaN	NaN	NaN	NaN
56	35.000	46.215	44.395	45.890	42.575	3.563	1.849	1.226	4.369	-0.051	-0.064	NaN	35.000	31.460	48.035	24.570	48.815	12.573	6.934	6.927	87.094	0.325	0.065	-0.258	35.000	30.290	50.375	17.745	52.455	14.080	12.716	12.690	178.679	0.062	NaN	-0.064	35.000	34.970	55.575	34.385	56.095	12.326	0.783	0.783	9.646	-0.047	NaN	0.049	35.000	33.475	54.080	31.590	56.355	12.584	2.954	2.823	35.524	-0.094	-0.142	-0.050	35.000	32.110	52.780	22.230	58.500	13.143	11.416	11.375	149.497	-0.030	-0.121	-0.089	35.000	43.160	52.000	43.940	58.500	4.884	6.547	6.267	30.606	-0.171	-0.072	0.129	35.000	41.535	53.300	38.220	65.065	6.590	12.223	12.150	80.072	-0.232	0.018	0.268	37.000	33.995	46.800	32.110	45.955	10.080	2.066	1.911	19.266	0.257	0.119	-0.145	NaN	NaN	NaN	NaN	NaN	NaN	NaN	NaN	NaN	NaN	NaN	NaN	NaN	NaN	NaN	NaN	NaN	NaN	NaN	NaN	NaN	NaN	NaN	NaN
57	36.000	46.215	44.395	45.890	42.575	3.512	1.849	1.210	4.250	-0.016	NaN	NaN	36.000	31.460	48.035	24.440	48.880	12.578	7.071	7.063	88.835	0.136	0.137	NaN	36.000	30.420	50.440	17.615	52.455	13.984	12.963	12.918	180.636	0.227	0.128	-0.118	36.000	35.230	55.445	34.385	56.160	12.092	1.107	1.105	13.364	0.323	0.042	-0.282	36.000	33.475	54.080	31.655	56.355	12.620	2.913	2.772	34.987	-0.051	-0.041	NaN	36.000	32.110	52.715	22.360	58.435	13.143	11.304	11.257	147.951	-0.118	-0.145	-0.033	36.000	43.160	52.000	43.940	58.500	4.948	6.547	6.271	31.028	0.004	NaN	NaN	36.000	41.470	53.235	38.285	65.065	6.615	12.251	12.147	80.355	-0.002	-0.017	-0.046	38.000	33.995	46.865	32.045	45.890	10.147	2.180	1.986	20.153	0.075	0.087	-0.029	NaN	NaN	NaN	NaN	NaN	NaN	NaN	NaN	NaN	NaN	NaN	NaN	NaN	NaN	NaN	NaN	NaN	NaN	NaN	NaN	NaN	NaN	NaN	NaN
58	37.000	46.215	44.395	45.890	42.510	3.472	1.913	1.281	4.449	0.071	0.064	NaN	37.000	31.590	48.100	24.310	48.815	12.518	7.315	7.314	91.552	0.251	0.123	-0.123	37.000	30.485	50.375	17.550	52.455	13.968	13.101	13.064	182.482	0.146	0.064	-0.074	37.000	35.165	55.380	34.385	56.225	12.143	1.150	1.146	13.921	0.041	0.048	-0.004	37.000	33.475	54.145	31.720	56.160	12.710	2.672	2.576	32.740	-0.196	-0.190	0.049	37.000	31.915	52.780	22.425	58.305	13.406	10.981	10.935	146.595	-0.322	-0.122	0.201	37.000	43.160	52.000	43.940	58.500	4.959	6.547	6.247	30.978	-0.025	NaN	NaN	37.000	41.470	53.040	38.285	65.000	6.461	12.377	12.231	79.024	0.083	-0.063	-0.188	39.000	34.060	46.930	31.980	45.890	10.080	2.326	2.112	21.294	0.126	0.058	-0.087	NaN	NaN	NaN	NaN	NaN	NaN	NaN	NaN	NaN	NaN	NaN	NaN	NaN	NaN	NaN	NaN	NaN	NaN	NaN	NaN	NaN	NaN	NaN	NaN
59	38.000	46.215	44.395	45.955	42.575	3.536	1.838	1.319	4.664	0.038	-0.074	NaN	38.000	31.525	48.165	24.245	48.750	12.643	7.303	7.303	92.333	-0.010	0.060	0.070	38.000	30.550	50.310	17.485	52.520	13.924	13.251	13.232	184.240	0.168	0.075	-0.075	38.000	34.840	55.705	34.320	56.290	12.562	0.783	0.778	9.777	-0.368	0.092	0.459	38.000	33.540	54.015	31.785	56.095	12.568	2.721	2.598	32.655	0.022	-0.092	-0.141	38.000	31.720	52.910	22.555	58.175	13.642	10.570	10.523	143.557	-0.412	-0.177	0.234	38.000	43.160	51.935	43.940	58.500	4.780	6.611	6.268	29.964	0.021	NaN	-0.065	38.000	41.470	53.105	38.285	65.000	6.428	12.314	12.145	78.074	-0.086	NaN	0.063	40.000	33.930	46.930	31.915	45.825	10.210	2.298	2.049	20.922	-0.063	0.088	0.114	NaN	NaN	NaN	NaN	NaN	NaN	NaN	NaN	NaN	NaN	NaN	NaN	NaN	NaN	NaN	NaN	NaN	NaN	NaN	NaN	NaN	NaN	NaN	NaN
60	39.000	46.215	44.395	45.890	42.575	3.536	1.849	1.281	4.529	-0.038	0.011	NaN	39.000	31.395	48.100	24.050	48.815	12.768	7.380	7.376	94.179	0.073	0.200	0.123	39.000	30.485	50.245	17.485	52.520	13.974	13.198	13.186	184.252	-0.046	NaN	0.053	39.000	34.905	55.770	34.255	56.290	12.558	0.832	0.830	10.427	0.052	0.051	-0.010	39.000	33.410	54.210	31.785	56.095	12.783	2.489	2.389	30.538	-0.209	NaN	0.233	39.000	31.720	52.910	22.685	58.045	13.642	10.392	10.351	141.208	-0.172	-0.177	NaN	39.000	43.095	52.065	43.940	58.500	4.921	6.490	6.111	30.074	-0.157	NaN	0.120	39.000	41.535	52.780	38.285	65.000	6.106	12.645	12.441	75.966	0.296	NaN	-0.331	41.000	33.930	46.995	31.850	45.825	10.147	2.386	2.123	21.548	0.074	0.057	-0.032	NaN	NaN	NaN	NaN	NaN	NaN	NaN	NaN	NaN	NaN	NaN	NaN	NaN	NaN	NaN	NaN	NaN	NaN	NaN	NaN	NaN	NaN	NaN	NaN
61	40.000	46.215	44.395	45.890	42.575	3.536	1.849	1.281	4.529	NaN	NaN	NaN	40.000	31.135	48.035	23.790	48.880	13.023	7.393	7.382	96.144	0.006	0.266	0.251	40.000	30.550	50.310	17.550	52.520	13.924	13.187	13.168	183.357	-0.018	-0.064	-0.053	40.000	34.970	55.640	34.255	56.290	12.422	0.966	0.966	12.003	0.136	NaN	-0.136	40.000	33.410	54.145	31.785	56.160	12.747	2.589	2.456	31.311	0.067	0.051	-0.051	40.000	31.590	52.975	22.750	57.980	13.788	10.159	10.120	139.526	-0.231	-0.089	0.145	40.000	43.095	52.195	43.940	58.500	5.048	6.361	5.996	30.268	-0.115	NaN	0.129	40.000	41.535	52.715	38.285	65.000	6.047	12.708	12.489	75.526	0.048	NaN	-0.063	42.000	33.865	46.930	31.850	45.760	10.280	2.330	2.065	21.226	-0.059	0.033	0.089	NaN	NaN	NaN	NaN	NaN	NaN	NaN	NaN	NaN	NaN	NaN	NaN	NaN	NaN	NaN	NaN	NaN	NaN	NaN	NaN	NaN	NaN	NaN	NaN
62	41.000	46.215	44.460	45.890	42.575	3.627	1.913	1.328	4.817	0.047	NaN	-0.064	41.000	30.680	48.035	23.660	48.880	13.406	7.071	7.053	94.547	-0.330	0.129	0.452	41.000	30.355	50.310	17.615	52.455	14.023	12.919	12.907	181.003	-0.261	-0.075	0.192	41.000	34.710	55.835	34.255	56.355	12.610	0.691	0.686	8.653	-0.280	0.049	0.318	41.000	33.410	54.210	31.785	56.225	12.658	2.589	2.455	31.075	-0.001	0.051	0.051	41.000	31.525	52.975	22.815	57.980	13.734	10.046	9.993	137.245	-0.127	-0.056	0.056	41.000	43.160	52.065	43.875	58.370	4.768	6.345	6.053	28.857	0.057	-0.136	-0.122	41.000	41.600	52.195	38.350	64.870	5.407	13.085	12.760	68.994	0.271	-0.142	-0.520	43.000	33.930	46.995	31.785	45.695	10.018	2.508	2.194	21.978	0.129	0.089	-0.089	NaN	NaN	NaN	NaN	NaN	NaN	NaN	NaN	NaN	NaN	NaN	NaN	NaN	NaN	NaN	NaN	NaN	NaN	NaN	NaN	NaN	NaN	NaN	NaN
63	42.000	46.215	44.395	45.955	42.510	3.642	1.903	1.399	5.095	0.071	0.056	0.064	42.000	30.550	48.165	23.530	48.750	13.607	7.044	7.042	95.823	-0.011	0.119	0.140	42.000	30.485	50.310	17.680	52.455	13.960	12.983	12.970	181.062	0.063	-0.064	-0.128	42.000	34.645	55.835	34.190	56.355	12.707	0.691	0.686	8.712	-5.720E-4	0.043	0.043	42.000	33.345	54.340	31.720	56.160	12.837	2.440	2.352	30.192	-0.103	-0.005	0.140	42.000	31.525	52.975	22.880	57.915	13.793	9.957	9.905	136.628	-0.088	-0.089	NaN	42.000	43.225	52.065	43.940	58.435	4.768	6.410	6.116	29.161	0.064	0.072	0.007	42.000	41.600	52.325	38.415	64.675	5.552	12.754	12.442	69.083	-0.318	-0.205	0.126	44.000	33.995	47.060	31.785	45.760	9.888	2.564	2.260	22.342	0.066	-0.033	-0.089	NaN	NaN	NaN	NaN	NaN	NaN	NaN	NaN	NaN	NaN	NaN	NaN	NaN	NaN	NaN	NaN	NaN	NaN	NaN	NaN	NaN	NaN	NaN	NaN
64	43.000	46.280	44.590	45.955	42.575	3.645	2.041	1.336	4.871	-0.063	-0.064	-0.203	43.000	30.160	48.165	23.530	48.750	13.802	6.656	6.652	91.818	-0.390	NaN	0.388	43.000	30.485	50.310	17.745	52.455	13.769	12.919	12.905	177.691	-0.065	-0.064	NaN	43.000	34.515	55.900	34.125	56.355	12.702	0.599	0.594	7.550	-0.091	0.042	0.134	43.000	33.345	54.275	31.655	56.290	12.638	2.630	2.515	31.789	0.163	0.141	-0.050	43.000	31.330	53.040	22.880	57.915	13.820	9.755	9.705	134.123	-0.200	NaN	0.201	43.000	43.225	52.000	43.940	58.500	4.670	6.539	6.314	29.486	0.197	0.065	-0.065	43.000	41.600	52.325	38.415	64.675	5.466	12.754	12.525	68.462	0.083	NaN	NaN	45.000	33.995	47.060	31.785	45.760	9.693	2.564	2.261	21.911	9.609E-4	NaN	NaN	NaN	NaN	NaN	NaN	NaN	NaN	NaN	NaN	NaN	NaN	NaN	NaN	NaN	NaN	NaN	NaN	NaN	NaN	NaN	NaN	NaN	NaN	NaN	NaN
65	44.000	46.215	44.460	45.890	42.510	3.797	1.977	1.335	5.070	-0.001	0.075	0.139	44.000	30.030	48.165	23.465	48.750	13.863	6.591	6.586	91.311	-0.066	0.065	0.129	44.000	30.355	50.310	17.875	52.455	13.819	12.663	12.654	174.864	-0.251	-0.128	0.128	44.000	34.385	55.965	34.060	56.355	12.750	0.508	0.502	6.405	-0.092	0.042	0.133	44.000	33.150	54.535	31.655	56.355	12.854	2.355	2.251	28.929	-0.265	0.050	0.325	44.000	31.330	53.040	22.815	57.980	13.734	9.844	9.788	134.435	0.083	0.089	NaN	44.000	43.160	52.065	43.940	58.500	4.670	6.482	6.240	29.140	-0.074	NaN	0.057	44.000	41.600	52.260	38.415	64.675	5.321	12.817	12.585	66.962	0.060	NaN	-0.063	46.000	33.995	47.060	31.785	45.760	9.693	2.564	2.261	21.911	NaN	NaN	NaN	NaN	NaN	NaN	NaN	NaN	NaN	NaN	NaN	NaN	NaN	NaN	NaN	NaN	NaN	NaN	NaN	NaN	NaN	NaN	NaN	NaN	NaN	NaN	NaN
66	45.000	46.215	44.525	45.955	42.575	3.871	1.967	1.303	5.045	-0.032	-0.073	-0.064	45.000	29.640	48.165	23.465	48.815	14.058	6.209	6.200	87.162	-0.386	0.007	0.388	45.000	30.485	50.310	18.070	52.455	13.501	12.599	12.588	169.951	-0.066	-0.192	-0.128	45.000	34.385	56.030	34.125	56.355	12.650	0.416	0.411	5.205	-0.091	-0.041	0.051	45.000	33.280	54.405	31.395	56.615	12.511	2.905	2.795	34.975	0.545	0.367	-0.183	45.000	31.395	53.040	22.815	57.980	13.497	9.901	9.856	133.020	0.067	NaN	-0.056	45.000	43.160	52.000	43.940	58.500	4.580	6.547	6.369	29.169	0.130	NaN	-0.065	45.000	41.600	52.455	38.415	64.675	5.420	12.628	12.507	67.786	-0.078	NaN	0.189	47.000	33.995	47.060	31.785	45.760	9.890	2.564	2.267	22.426	0.007	NaN	NaN	NaN	NaN	NaN	NaN	NaN	NaN	NaN	NaN	NaN	NaN	NaN	NaN	NaN	NaN	NaN	NaN	NaN	NaN	NaN	NaN	NaN	NaN	NaN	NaN
67	46.000	46.280	44.460	45.890	42.575	3.962	1.925	1.167	4.622	-0.137	0.013	0.050	46.000	29.640	48.165	23.335	48.750	14.058	6.332	6.327	88.940	0.127	0.123	NaN	46.000	30.615	50.375	18.265	52.455	13.388	12.524	12.506	167.437	-0.082	-0.192	-0.117	46.000	34.385	56.030	34.125	56.355	12.650	0.416	0.411	5.205	NaN	NaN	NaN	46.000	33.215	54.470	31.135	56.875	12.601	3.180	3.067	38.650	0.272	0.367	0.092	46.000	31.200	53.105	22.750	58.110	13.701	9.821	9.762	133.759	-0.093	0.122	0.201	46.000	43.160	52.000	43.940	58.500	4.580	6.547	6.369	29.169	NaN	NaN	NaN	46.000	41.600	52.195	38.415	64.740	5.181	12.943	12.768	66.151	0.262	0.063	-0.252	48.000	33.995	47.060	31.785	45.695	9.888	2.598	2.262	22.367	-0.005	0.034	NaN	NaN	NaN	NaN	NaN	NaN	NaN	NaN	NaN	NaN	NaN	NaN	NaN	NaN	NaN	NaN	NaN	NaN	NaN	NaN	NaN	NaN	NaN	NaN	NaN
68	47.000	46.215	44.525	45.955	42.510	3.797	2.032	1.427	5.416	0.260	0.056	-0.056	47.000	29.965	48.165	23.205	48.815	13.925	6.791	6.783	94.454	0.456	0.136	-0.324	47.000	30.420	50.375	18.330	52.390	13.756	12.257	12.245	168.434	-0.261	-0.075	0.192	47.000	34.450	56.030	34.060	56.355	12.702	0.508	0.507	6.443	0.096	0.050	-0.050	47.000	33.280	54.405	31.005	57.005	12.638	3.455	3.325	42.018	0.258	0.183	-0.092	47.000	31.330	53.040	22.685	58.110	13.708	10.022	9.955	136.463	0.193	0.056	-0.145	47.000	42.900	51.090	44.005	58.565	3.706	7.556	6.921	25.646	0.551	0.074	-0.938	47.000	41.600	52.130	38.415	64.675	5.145	12.943	12.660	65.141	-0.108	-0.063	-0.063	49.000	33.995	47.060	31.850	45.695	9.953	2.542	2.197	21.864	-0.065	-0.055	NaN	NaN	NaN	NaN	NaN	NaN	NaN	NaN	NaN	NaN	NaN	NaN	NaN	NaN	NaN	NaN	NaN	NaN	NaN	NaN	NaN	NaN	NaN	NaN	NaN
69	48.000	46.215	44.395	45.955	42.510	3.848	1.903	1.338	5.150	-0.088	NaN	0.129	48.000	30.030	48.165	23.075	48.815	13.863	6.985	6.979	96.757	0.196	0.129	-0.065	48.000	30.615	50.375	18.330	52.390	13.579	12.449	12.431	168.793	0.186	NaN	-0.192	48.000	34.515	55.965	34.125	56.355	12.654	0.552	0.551	6.971	0.044	-0.046	-0.092	48.000	33.345	54.275	30.875	57.135	12.548	3.779	3.628	45.529	0.304	0.183	-0.141	48.000	31.200	53.105	22.750	58.045	13.879	9.788	9.730	135.039	-0.226	-0.089	0.145	48.000	42.900	51.025	44.005	58.630	3.706	7.685	7.046	26.111	0.125	0.064	-0.064	48.000	41.600	51.870	38.415	64.675	4.971	13.195	12.843	63.844	0.183	NaN	-0.252	50.000	34.060	46.995	31.785	45.695	10.020	2.620	2.332	23.364	0.135	0.056	-0.024	NaN	NaN	NaN	NaN	NaN	NaN	NaN	NaN	NaN	NaN	NaN	NaN	NaN	NaN	NaN	NaN	NaN	NaN	NaN	NaN	NaN	NaN	NaN	NaN
70	49.000	46.215	44.460	45.955	42.575	3.757	1.903	1.343	5.045	0.004	-0.064	-0.064	49.000	30.095	48.165	22.815	48.750	13.863	7.303	7.300	101.210	0.321	0.254	-0.065	49.000	30.615	50.310	18.395	52.390	13.628	12.396	12.384	168.780	-0.046	-0.064	-0.011	49.000	34.450	56.030	34.125	56.355	12.794	0.460	0.459	5.873	-0.092	NaN	0.092	49.000	33.345	54.275	30.745	57.330	12.603	4.012	3.840	48.397	0.212	0.233	NaN	49.000	31.070	53.235	22.750	58.045	14.110	9.610	9.561	134.904	-0.169	NaN	0.178	49.000	42.900	50.765	44.005	58.565	3.474	7.878	7.112	24.708	0.065	-0.064	-0.257	49.000	41.535	51.805	38.415	64.675	4.975	13.243	12.775	63.552	-0.068	NaN	-0.048	51.000	34.060	46.995	31.785	45.630	10.083	2.653	2.326	23.453	-0.006	0.033	NaN	NaN	NaN	NaN	NaN	NaN	NaN	NaN	NaN	NaN	NaN	NaN	NaN	NaN	NaN	NaN	NaN	NaN	NaN	NaN	NaN	NaN	NaN	NaN	NaN
71	50.000	46.215	44.525	45.955	42.575	3.627	1.967	1.419	5.146	0.076	NaN	-0.064	50.000	30.355	48.230	22.815	48.750	13.737	7.558	7.557	103.817	0.257	NaN	-0.255	50.000	30.680	50.245	18.395	52.455	13.679	12.482	12.477	170.673	0.093	0.012	-0.075	50.000	34.515	55.965	34.190	56.355	12.799	0.508	0.502	6.426	0.043	-0.042	-0.092	50.000	33.410	54.210	30.615	57.460	12.623	4.287	4.101	51.765	0.261	0.183	-0.092	50.000	31.200	53.105	22.750	58.045	14.058	9.788	9.723	136.687	0.163	NaN	-0.178	50.000	43.030	51.025	44.005	58.630	3.723	7.667	7.030	26.174	-0.082	0.064	0.274	50.000	41.600	52.325	38.415	64.610	5.465	12.691	12.398	67.756	-0.376	-0.063	0.487	52.000	33.995	46.930	31.850	45.695	10.153	2.475	2.205	22.393	-0.121	-0.089	0.089	NaN	NaN	NaN	NaN	NaN	NaN	NaN	NaN	NaN	NaN	NaN	NaN	NaN	NaN	NaN	NaN	NaN	NaN	NaN	NaN	NaN	NaN	NaN	NaN
72	51.000	46.280	44.460	45.955	42.575	3.627	1.913	1.328	4.817	-0.091	NaN	0.053	51.000	30.485	48.165	22.750	48.750	13.672	7.757	7.756	106.039	0.198	0.065	-0.135	51.000	30.680	50.245	18.330	52.390	13.756	12.535	12.526	172.304	0.049	0.053	NaN	51.000	34.515	55.965	34.255	56.225	12.890	0.368	0.367	4.732	-0.135	-0.138	NaN	51.000	33.410	54.145	30.550	57.460	12.678	4.378	4.187	53.083	0.086	0.042	-0.049	51.000	31.135	53.170	22.880	57.915	14.229	9.522	9.471	134.765	-0.252	-0.177	0.089	51.000	42.965	50.895	43.940	58.500	3.700	7.667	6.906	25.553	-0.124	-0.137	-0.137	51.000	41.665	51.740	38.415	64.675	5.007	13.337	12.855	64.359	0.457	0.063	-0.583	53.000	33.995	46.995	31.915	45.760	10.215	2.419	2.133	21.788	-0.072	-0.089	-0.033	NaN	NaN	NaN	NaN	NaN	NaN	NaN	NaN	NaN	NaN	NaN	NaN	NaN	NaN	NaN	NaN	NaN	NaN	NaN	NaN	NaN	NaN	NaN	NaN
73	52.000	46.280	44.460	45.955	42.575	3.680	1.913	1.342	4.939	0.014	NaN	NaN	52.000	30.875	48.165	22.620	48.750	13.279	8.276	8.275	109.880	0.519	0.130	-0.389	52.000	30.550	50.180	18.330	52.390	13.857	12.418	12.416	172.042	-0.110	NaN	0.116	52.000	34.515	55.965	34.385	56.225	12.847	0.291	0.270	3.465	-0.097	-0.058	NaN	52.000	33.345	54.210	30.615	57.460	12.733	4.244	4.039	51.427	-0.148	-0.042	0.092	52.000	31.395	52.975	22.880	57.915	13.886	9.844	9.777	135.775	0.306	NaN	-0.323	52.000	42.965	51.090	43.940	58.500	3.823	7.474	6.756	25.832	-0.150	NaN	0.193	52.000	41.665	51.805	38.415	64.675	5.007	13.274	12.798	64.076	-0.057	NaN	0.063	54.000	34.060	47.060	31.915	45.760	10.147	2.508	2.193	22.257	0.060	NaN	-0.089	NaN	NaN	NaN	NaN	NaN	NaN	NaN	NaN	NaN	NaN	NaN	NaN	NaN	NaN	NaN	NaN	NaN	NaN	NaN	NaN	NaN	NaN	NaN	NaN
74	53.000	46.280	44.460	45.955	42.510	3.642	1.977	1.415	5.155	0.073	0.064	NaN	53.000	31.070	48.165	22.620	48.750	13.149	8.470	8.469	111.367	0.195	NaN	-0.195	53.000	30.680	50.180	18.330	52.390	13.793	12.546	12.543	173.005	0.127	NaN	-0.128	53.000	34.580	56.030	34.515	56.225	12.890	0.206	0.178	2.298	-0.091	-0.041	0.041	53.000	33.410	54.275	30.615	57.395	12.767	4.189	4.030	51.452	-0.009	-0.048	0.005	53.000	31.460	52.975	22.880	57.915	13.886	9.901	9.837	136.603	0.060	NaN	-0.056	53.000	42.900	50.895	43.940	58.500	3.682	7.676	6.748	24.847	-0.008	NaN	-0.202	53.000	41.600	51.805	38.415	64.740	5.072	13.321	12.739	64.613	-0.059	0.063	0.016	55.000	33.930	46.995	31.980	45.760	10.280	2.308	2.003	20.588	-0.191	-0.055	0.145	NaN	NaN	NaN	NaN	NaN	NaN	NaN	NaN	NaN	NaN	NaN	NaN	NaN	NaN	NaN	NaN	NaN	NaN	NaN	NaN	NaN	NaN	NaN	NaN
75	54.000	46.280	44.460	45.955	42.510	3.642	1.977	1.415	5.155	NaN	NaN	NaN	54.000	31.070	48.035	22.490	48.750	13.143	8.610	8.603	113.074	0.134	0.130	-0.011	54.000	30.680	50.180	18.330	52.390	13.793	12.546	12.543	173.005	NaN	NaN	NaN	54.000	34.645	55.965	34.515	56.095	12.799	0.184	0.184	2.349	0.005	-0.092	-0.092	54.000	33.410	54.275	30.615	57.395	12.767	4.189	4.030	51.452	NaN	NaN	NaN	54.000	31.395	53.105	22.880	57.850	13.998	9.748	9.706	135.868	-0.131	-0.032	0.120	54.000	42.965	50.895	43.940	58.435	3.660	7.603	6.769	24.771	0.021	-0.064	0.008	54.000	41.600	51.935	38.415	64.675	5.184	13.132	12.619	65.420	-0.120	-0.063	0.126	56.000	33.995	46.995	31.915	45.760	10.212	2.419	2.126	21.708	0.123	0.056	-0.056	NaN	NaN	NaN	NaN	NaN	NaN	NaN	NaN	NaN	NaN	NaN	NaN	NaN	NaN	NaN	NaN	NaN	NaN	NaN	NaN	NaN	NaN	NaN	NaN
76	55.000	46.280	44.460	45.955	42.510	3.642	1.977	1.415	5.155	NaN	NaN	NaN	55.000	31.395	48.100	22.425	48.750	12.821	8.994	8.991	115.283	0.388	0.065	-0.319	55.000	30.680	50.115	18.330	52.390	13.780	12.558	12.557	173.035	0.014	NaN	-0.012	55.000	34.840	55.965	34.710	56.160	12.654	0.234	0.227	2.877	0.044	-0.054	-0.108	55.000	33.410	54.275	30.615	57.395	12.767	4.189	4.030	51.452	NaN	NaN	NaN	55.000	31.460	53.040	22.945	57.850	13.912	9.780	9.730	135.369	0.024	-0.057	-0.089	55.000	42.965	51.025	43.940	58.500	3.782	7.538	6.747	25.519	-0.022	0.064	0.129	55.000	41.600	52.260	38.415	64.675	5.468	12.817	12.436	67.997	-0.183	NaN	0.315	57.000	33.800	46.995	31.980	45.825	10.405	2.164	1.856	19.308	-0.270	-0.090	0.164	NaN	NaN	NaN	NaN	NaN	NaN	NaN	NaN	NaN	NaN	NaN	NaN	NaN	NaN	NaN	NaN	NaN	NaN	NaN	NaN	NaN	NaN	NaN	NaN
77	56.000	46.280	44.460	45.955	42.510	3.589	1.977	1.401	5.028	-0.014	NaN	NaN	56.000	31.590	48.100	22.360	48.750	12.630	9.253	9.252	116.855	0.261	0.065	-0.195	56.000	30.680	50.180	18.395	52.390	13.806	12.482	12.478	172.270	-0.079	-0.064	0.012	56.000	34.905	55.835	34.775	56.095	12.562	0.291	0.271	3.405	0.044	-0.087	-0.145	56.000	33.410	54.275	30.615	57.330	12.802	4.141	4.000	51.207	-0.030	-0.048	NaN	56.000	31.590	52.975	22.880	57.915	13.793	10.013	9.965	137.448	0.235	0.089	-0.145	56.000	42.900	51.025	43.940	58.500	3.865	7.547	6.690	25.857	-0.057	NaN	-0.009	56.000	41.600	52.065	38.350	64.870	5.354	13.211	12.772	68.377	0.336	0.205	-0.189	58.000	33.995	46.995	32.110	45.955	10.145	2.153	1.917	19.452	0.062	-0.177	-0.171	NaN	NaN	NaN	NaN	NaN	NaN	NaN	NaN	NaN	NaN	NaN	NaN	NaN	NaN	NaN	NaN	NaN	NaN	NaN	NaN	NaN	NaN	NaN	NaN
78	57.000	46.280	44.525	45.955	42.510	3.484	2.041	1.422	4.956	0.022	NaN	-0.064	57.000	31.655	48.035	22.425	48.750	12.565	9.258	9.256	116.302	0.004	-0.065	-0.070	57.000	30.680	50.115	18.395	52.390	13.806	12.494	12.491	172.452	0.013	NaN	-0.012	57.000	34.970	55.835	34.710	56.095	12.558	0.368	0.367	4.614	0.096	0.046	-0.046	57.000	33.475	54.210	30.550	57.330	12.747	4.277	4.147	52.867	0.147	0.044	-0.092	57.000	31.850	52.845	22.880	57.850	13.530	10.272	10.232	138.432	0.267	-0.032	-0.290	57.000	42.965	50.960	43.940	58.435	3.844	7.538	6.765	26.005	0.076	-0.064	-0.056	57.000	41.600	51.935	38.350	64.935	5.297	13.400	12.921	68.445	0.150	0.063	-0.126	59.000	33.605	46.865	32.240	46.020	10.605	1.605	1.400	14.847	-0.517	-0.145	0.400	NaN	NaN	NaN	NaN	NaN	NaN	NaN	NaN	NaN	NaN	NaN	NaN	NaN	NaN	NaN	NaN	NaN	NaN	NaN	NaN	NaN	NaN	NaN	NaN
79	58.000	46.280	44.460	45.955	42.510	3.575	1.977	1.365	4.880	-0.057	NaN	0.064	58.000	31.720	48.035	22.425	48.750	12.436	9.322	9.321	115.909	0.065	NaN	-0.065	58.000	30.485	50.115	18.395	52.390	13.933	12.302	12.301	171.387	-0.191	NaN	0.192	58.000	34.905	55.835	34.645	56.160	12.558	0.416	0.411	5.167	0.044	0.091	0.041	58.000	33.475	54.145	30.615	57.395	12.658	4.329	4.161	52.669	0.014	0.006	-0.049	58.000	31.980	52.780	22.880	57.850	13.325	10.417	10.378	138.293	0.147	NaN	-0.145	58.000	42.965	50.960	43.940	58.500	3.823	7.603	6.880	26.305	0.115	0.064	NaN	58.000	41.600	52.520	38.285	65.065	5.785	12.976	12.729	73.638	-0.192	0.142	0.566	60.000	33.865	46.800	32.370	46.020	10.287	1.686	1.537	15.810	0.137	-0.115	-0.200	NaN	NaN	NaN	NaN	NaN	NaN	NaN	NaN	NaN	NaN	NaN	NaN	NaN	NaN	NaN	NaN	NaN	NaN	NaN	NaN	NaN	NaN	NaN	NaN
80	59.000	46.215	44.460	45.955	42.575	3.499	1.903	1.391	4.867	0.026	-0.064	0.009	59.000	31.850	48.100	22.295	48.815	12.375	9.582	9.581	118.562	0.260	0.134	-0.125	59.000	30.680	50.180	18.395	52.390	13.819	12.482	12.476	172.414	0.176	NaN	-0.180	59.000	34.840	55.900	34.580	56.160	12.697	0.368	0.367	4.664	-0.044	0.046	0.092	59.000	33.410	54.210	30.615	57.395	12.802	4.237	4.070	52.103	-0.091	NaN	0.092	59.000	32.045	52.715	23.010	57.785	13.298	10.360	10.315	137.173	-0.064	-0.145	-0.088	59.000	43.225	52.000	43.940	58.435	4.780	6.475	6.154	29.419	-0.726	-0.065	1.062	59.000	41.600	52.195	38.285	64.935	5.525	13.164	12.801	70.727	0.072	-0.126	-0.315	61.000	33.605	46.865	32.500	46.085	10.478	1.353	1.142	11.969	-0.395	-0.144	0.175	NaN	NaN	NaN	NaN	NaN	NaN	NaN	NaN	NaN	NaN	NaN	NaN	NaN	NaN	NaN	NaN	NaN	NaN	NaN	NaN	NaN	NaN	NaN	NaN
81	60.000	46.280	44.460	45.955	42.575	3.627	1.913	1.328	4.817	-0.063	NaN	-0.011	60.000	31.785	48.100	22.165	48.750	12.371	9.642	9.641	119.272	0.060	0.125	0.065	60.000	30.550	50.310	18.330	52.390	13.896	12.396	12.384	172.093	-0.092	0.064	0.150	60.000	34.840	55.835	34.580	56.160	12.562	0.416	0.411	5.163	0.044	NaN	-0.051	60.000	33.475	54.210	30.615	57.460	12.658	4.329	4.161	52.669	0.091	0.049	-0.043	60.000	32.110	52.780	23.140	57.655	13.180	10.209	10.180	134.165	-0.135	-0.176	-0.026	60.000	42.965	50.960	43.940	58.435	3.762	7.538	6.801	25.582	0.647	NaN	-1.065	60.000	41.600	52.325	38.350	64.870	5.552	12.959	12.645	70.211	-0.156	-0.079	0.126	62.000	33.605	46.735	32.630	46.020	10.546	1.209	1.013	10.685	-0.129	-0.066	0.077	NaN	NaN	NaN	NaN	NaN	NaN	NaN	NaN	NaN	NaN	NaN	NaN	NaN	NaN	NaN	NaN	NaN	NaN	NaN	NaN	NaN	NaN	NaN	NaN
82	61.000	46.280	44.460	45.955	42.510	3.666	1.977	1.360	4.986	0.032	0.064	NaN	61.000	31.655	48.165	22.035	48.685	12.439	9.634	9.634	119.838	-0.008	0.126	0.133	61.000	30.485	50.245	18.395	52.390	13.883	12.279	12.273	170.377	-0.111	-0.064	0.053	61.000	34.840	55.900	34.645	56.160	12.558	0.325	0.320	4.014	-0.091	-0.039	0.052	61.000	33.475	54.275	30.550	57.525	12.638	4.372	4.224	53.383	0.063	0.092	0.048	61.000	32.175	52.780	23.270	57.590	13.061	10.121	10.097	131.875	-0.083	-0.145	-0.057	61.000	43.225	52.000	43.940	58.565	4.692	6.604	6.329	29.693	-0.472	0.129	1.062	61.000	41.600	52.065	38.415	64.740	5.292	13.069	12.696	67.186	0.051	-0.142	-0.252	63.000	33.670	46.865	32.695	46.020	10.543	1.290	1.015	10.706	0.002	-0.049	-0.134	NaN	NaN	NaN	NaN	NaN	NaN	NaN	NaN	NaN	NaN	NaN	NaN	NaN	NaN	NaN	NaN	NaN	NaN	NaN	NaN	NaN	NaN	NaN	NaN
83	62.000	46.280	44.525	45.955	42.575	3.523	1.977	1.349	4.753	-0.011	-0.064	-0.064	62.000	31.460	48.165	21.970	48.685	12.703	9.504	9.504	120.725	-0.130	0.065	0.195	62.000	30.485	50.310	18.330	52.390	13.974	12.332	12.319	172.135	0.046	0.064	0.011	62.000	34.970	55.640	34.645	56.160	12.378	0.613	0.590	7.305	0.271	NaN	-0.289	62.000	33.410	54.340	30.485	57.590	12.818	4.372	4.227	54.186	0.003	0.092	0.092	62.000	32.240	52.780	23.400	57.460	13.088	10.002	9.986	130.705	-0.110	-0.176	-0.057	62.000	43.225	52.000	43.940	58.565	4.768	6.604	6.308	30.074	-0.021	NaN	NaN	62.000	41.665	52.065	38.415	64.740	5.349	13.085	12.744	68.170	0.047	NaN	-0.016	64.000	33.670	46.800	32.695	46.020	10.481	1.249	1.017	10.660	0.002	NaN	0.041	NaN	NaN	NaN	NaN	NaN	NaN	NaN	NaN	NaN	NaN	NaN	NaN	NaN	NaN	NaN	NaN	NaN	NaN	NaN	NaN	NaN	NaN	NaN	NaN
84	63.000	46.280	44.460	45.955	42.575	3.589	1.913	1.348	4.838	-0.001	NaN	0.064	63.000	31.850	48.230	21.970	48.815	12.379	9.897	9.897	122.512	0.393	0.008	-0.385	63.000	30.615	50.310	18.395	52.390	13.896	12.396	12.384	172.093	0.065	-0.064	-0.128	63.000	34.905	55.705	34.580	56.225	12.475	0.613	0.589	7.347	-0.001	0.090	0.090	63.000	33.150	54.730	30.420	57.720	13.268	4.049	3.929	52.128	-0.299	0.140	0.463	63.000	31.915	52.910	23.465	57.395	13.470	9.566	9.546	128.588	-0.440	-0.088	0.348	63.000	42.965	50.895	43.940	58.500	3.721	7.667	6.850	25.489	0.542	-0.064	-1.129	63.000	41.665	52.195	38.350	64.805	5.437	13.038	12.701	69.058	-0.042	0.079	0.126	65.000	33.605	46.735	32.760	46.150	10.550	1.028	0.879	9.278	-0.138	-0.127	0.090	NaN	NaN	NaN	NaN	NaN	NaN	NaN	NaN	NaN	NaN	NaN	NaN	NaN	NaN	NaN	NaN	NaN	NaN	NaN	NaN	NaN	NaN	NaN	NaN
85	64.000	46.280	44.525	45.955	42.575	3.575	1.977	1.365	4.880	0.017	NaN	-0.064	64.000	31.720	48.165	21.970	48.815	12.439	9.772	9.772	121.553	-0.125	NaN	0.125	64.000	30.550	50.375	18.395	52.390	13.910	12.321	12.304	171.151	-0.080	NaN	0.075	64.000	34.970	55.640	34.515	56.290	12.335	0.793	0.773	9.536	0.184	0.091	-0.091	64.000	33.150	54.535	30.290	57.850	13.107	4.378	4.205	55.119	0.277	0.183	-0.148	64.000	32.175	52.845	23.530	57.330	13.147	9.739	9.727	127.882	0.181	-0.088	-0.261	64.000	42.900	50.960	43.940	58.500	3.782	7.611	6.787	25.671	-0.063	NaN	0.056	64.000	41.665	51.935	38.350	64.740	5.177	13.227	12.835	66.451	0.134	-0.063	-0.252	66.000	33.605	46.735	32.695	46.020	10.554	1.157	0.956	10.094	0.077	0.131	NaN	NaN	NaN	NaN	NaN	NaN	NaN	NaN	NaN	NaN	NaN	NaN	NaN	NaN	NaN	NaN	NaN	NaN	NaN	NaN	NaN	NaN	NaN	NaN	NaN
86	65.000	46.280	44.460	45.955	42.575	3.627	1.913	1.328	4.817	-0.037	NaN	0.064	65.000	31.785	48.165	22.035	48.750	12.375	9.768	9.767	120.869	-0.004	-0.069	-0.065	65.000	30.550	50.245	18.395	52.390	13.883	12.343	12.336	171.260	0.032	NaN	-0.023	65.000	34.970	55.640	34.515	56.290	12.335	0.793	0.773	9.536	NaN	NaN	NaN	65.000	33.280	54.470	30.290	57.915	12.963	4.562	4.387	56.864	0.181	0.049	-0.134	65.000	32.175	52.845	23.790	57.200	13.147	9.449	9.436	124.063	-0.291	-0.291	NaN	65.000	42.900	51.025	44.005	58.500	3.844	7.556	6.724	25.844	-0.064	0.010	0.064	65.000	41.665	51.805	38.350	64.805	5.063	13.416	12.965	65.648	0.130	0.063	-0.126	67.000	33.670	46.605	32.695	46.085	10.499	1.105	1.014	10.643	0.057	-0.031	0.004	NaN	NaN	NaN	NaN	NaN	NaN	NaN	NaN	NaN	NaN	NaN	NaN	NaN	NaN	NaN	NaN	NaN	NaN	NaN	NaN	NaN	NaN	NaN	NaN
87	66.000	46.280	44.460	45.955	42.575	3.680	1.913	1.342	4.939	0.014	NaN	NaN	66.000	31.915	48.100	21.905	48.685	12.237	10.027	10.027	122.702	0.259	0.126	-0.134	66.000	30.550	50.310	18.395	52.455	13.883	12.343	12.336	171.260	NaN	0.011	0.011	66.000	34.840	55.900	34.515	56.290	12.562	0.508	0.503	6.316	-0.270	NaN	0.283	66.000	33.215	54.470	30.225	58.045	12.982	4.661	4.448	57.747	0.062	0.141	0.042	66.000	32.175	52.845	23.855	57.135	13.121	9.361	9.348	122.652	-0.088	-0.088	NaN	66.000	42.965	51.090	43.940	58.500	3.823	7.474	6.756	25.832	0.033	-0.008	0.073	66.000	41.665	51.805	38.350	64.870	5.007	13.479	13.000	65.086	0.034	0.063	NaN	68.000	33.800	46.735	32.695	46.085	10.295	1.282	1.147	11.813	0.134	NaN	-0.178	NaN	NaN	NaN	NaN	NaN	NaN	NaN	NaN	NaN	NaN	NaN	NaN	NaN	NaN	NaN	NaN	NaN	NaN	NaN	NaN	NaN	NaN	NaN	NaN
88	67.000	46.280	44.460	45.955	42.575	3.680	1.913	1.342	4.939	NaN	NaN	NaN	67.000	32.045	48.100	21.775	48.685	12.107	10.287	10.287	124.545	0.260	0.130	-0.130	67.000	30.485	50.310	18.395	52.390	13.946	12.268	12.260	170.977	-0.077	-0.011	0.064	67.000	34.840	55.835	34.450	56.355	12.518	0.650	0.638	7.985	0.135	0.091	-0.052	67.000	33.215	54.600	30.160	58.110	13.053	4.653	4.479	58.457	0.030	0.092	0.098	67.000	32.175	52.910	23.855	57.070	13.147	9.302	9.296	122.221	-0.052	-0.029	0.029	67.000	42.965	51.025	43.940	58.435	3.762	7.474	6.739	25.350	-0.017	-0.064	-0.064	67.000	41.665	51.935	38.415	64.675	5.120	13.148	12.727	65.166	-0.272	-0.205	0.126	69.000	33.865	46.800	32.760	46.215	10.291	1.250	1.140	11.729	-0.008	-0.118	-0.088	NaN	NaN	NaN	NaN	NaN	NaN	NaN	NaN	NaN	NaN	NaN	NaN	NaN	NaN	NaN	NaN	NaN	NaN	NaN	NaN	NaN	NaN	NaN	NaN
89	68.000	46.280	44.460	45.955	42.575	3.718	1.913	1.323	4.918	-0.019	NaN	NaN	68.000	32.045	48.100	21.775	48.620	12.043	10.283	10.283	123.835	-0.003	-0.003	NaN	68.000	30.420	50.375	18.395	52.390	13.960	12.193	12.180	170.035	-0.079	NaN	0.075	68.000	34.775	55.965	34.385	56.420	12.606	0.599	0.595	7.499	-0.043	0.092	0.141	68.000	33.150	54.600	30.095	58.110	13.053	4.653	4.479	58.457	6.217E-15	0.043	0.043	68.000	31.850	52.975	23.920	57.070	13.411	8.925	8.913	119.529	-0.383	-0.058	0.319	68.000	42.965	51.090	43.940	58.500	3.804	7.474	6.807	25.895	0.068	0.064	0.064	68.000	41.665	51.870	38.415	64.675	5.032	13.211	12.801	64.414	0.074	NaN	-0.063	70.000	33.605	46.800	32.695	46.150	10.554	1.118	0.952	10.047	-0.188	0.091	0.212	NaN	NaN	NaN	NaN	NaN	NaN	NaN	NaN	NaN	NaN	NaN	NaN	NaN	NaN	NaN	NaN	NaN	NaN	NaN	NaN	NaN	NaN	NaN	NaN
90	69.000	46.215	44.395	45.955	42.575	3.696	1.838	1.358	5.019	0.035	NaN	0.074	69.000	31.980	48.100	21.645	48.620	12.172	10.348	10.348	125.960	0.065	0.130	0.065	69.000	30.485	50.440	18.330	52.390	13.974	12.310	12.291	171.746	0.110	0.064	-0.054	69.000	34.710	55.835	34.385	56.420	12.615	0.669	0.632	7.968	0.037	NaN	-0.082	69.000	33.215	54.535	30.030	58.240	13.017	4.886	4.688	61.030	0.210	0.141	-0.092	69.000	31.785	53.040	23.855	57.070	13.556	8.895	8.886	120.463	-0.027	0.058	0.087	69.000	42.900	50.960	43.940	58.500	3.721	7.611	6.767	25.181	-0.040	NaN	-0.138	69.000	41.665	51.740	38.415	64.675	4.950	13.337	12.831	63.519	0.030	NaN	-0.126	71.000	33.605	46.735	32.695	46.085	10.559	1.118	0.956	10.089	0.004	0.038	0.038	NaN	NaN	NaN	NaN	NaN	NaN	NaN	NaN	NaN	NaN	NaN	NaN	NaN	NaN	NaN	NaN	NaN	NaN	NaN	NaN	NaN	NaN	NaN	NaN
91	70.000	46.280	44.395	45.955	42.510	3.786	1.913	1.369	5.184	0.011	0.064	-0.011	70.000	32.045	48.230	21.515	48.750	12.111	10.543	10.542	127.680	0.194	0.136	-0.059	70.000	30.550	50.310	18.330	52.390	13.870	12.396	12.388	171.822	0.098	NaN	-0.086	70.000	34.710	55.965	34.385	56.420	12.658	0.559	0.546	6.908	-0.086	NaN	0.106	70.000	33.280	54.535	29.900	58.305	12.927	5.063	4.885	63.155	0.197	0.135	-0.043	70.000	31.590	53.040	23.985	57.005	13.708	8.577	8.558	117.311	-0.328	-0.145	0.173	70.000	43.225	51.935	44.005	58.500	4.513	6.611	6.273	28.308	-0.495	0.008	1.007	70.000	41.665	51.805	38.415	64.740	4.950	13.337	12.831	63.519	7.105E-15	0.063	0.063	72.000	33.540	46.670	32.630	46.085	10.688	1.082	0.950	10.157	-0.005	0.055	0.090	NaN	NaN	NaN	NaN	NaN	NaN	NaN	NaN	NaN	NaN	NaN	NaN	NaN	NaN	NaN	NaN	NaN	NaN	NaN	NaN	NaN	NaN	NaN	NaN
92	71.000	46.280	44.395	45.955	42.640	3.786	1.785	1.262	4.778	-0.107	-0.128	NaN	71.000	32.045	48.230	21.385	48.815	12.111	10.676	10.676	129.298	0.134	0.133	NaN	71.000	30.550	50.310	18.395	52.390	13.870	12.332	12.325	170.939	-0.064	-0.064	NaN	71.000	34.645	56.030	34.385	56.485	12.750	0.524	0.497	6.342	-0.048	0.056	0.089	71.000	33.280	54.535	29.770	58.370	12.927	5.199	5.030	65.023	0.144	0.136	NaN	71.000	31.785	53.040	23.985	56.940	13.530	8.721	8.713	117.878	0.155	-0.029	-0.174	71.000	43.225	52.000	44.005	58.500	4.576	6.547	6.215	28.443	-0.058	NaN	0.065	71.000	41.665	51.740	38.415	64.675	4.894	13.337	12.807	62.678	-0.024	-0.063	-0.063	73.000	33.410	46.670	32.500	46.020	10.823	1.118	0.958	10.368	0.008	0.144	0.106	NaN	NaN	NaN	NaN	NaN	NaN	NaN	NaN	NaN	NaN	NaN	NaN	NaN	NaN	NaN	NaN	NaN	NaN	NaN	NaN	NaN	NaN	NaN	NaN
93	72.000	46.280	44.395	46.020	42.575	3.696	1.838	1.358	5.019	0.096	0.055	NaN	72.000	31.980	48.295	21.255	48.815	12.249	10.738	10.735	131.499	0.059	0.130	0.068	72.000	30.615	50.310	18.395	52.455	13.883	12.407	12.400	172.143	0.075	0.011	-0.064	72.000	34.775	55.900	34.385	56.485	12.658	0.703	0.681	8.619	0.184	NaN	-0.180	72.000	33.280	54.535	29.705	58.500	13.017	5.339	5.157	67.131	0.127	0.140	NaN	72.000	31.850	52.910	24.050	56.940	13.503	8.780	8.763	118.334	0.051	-0.058	-0.117	72.000	43.030	51.025	43.940	58.435	3.762	7.466	6.759	25.426	0.544	-0.072	-0.991	72.000	41.665	51.675	38.415	64.610	4.927	13.337	12.764	62.889	-0.043	-0.063	-0.063	74.000	33.475	46.670	32.435	46.020	10.629	1.226	1.088	11.568	0.130	0.055	-0.055	NaN	NaN	NaN	NaN	NaN	NaN	NaN	NaN	NaN	NaN	NaN	NaN	NaN	NaN	NaN	NaN	NaN	NaN	NaN	NaN	NaN	NaN	NaN	NaN
94	73.000	46.215	44.330	45.955	42.575	3.769	1.774	1.344	5.066	-0.014	0.010	0.074	73.000	31.980	48.295	21.190	48.750	12.245	10.800	10.797	132.209	0.062	0.062	NaN	73.000	30.680	50.310	18.395	52.390	13.806	12.460	12.452	171.907	0.052	-0.011	-0.064	73.000	34.710	56.095	34.385	56.485	12.794	0.508	0.503	6.430	-0.178	NaN	0.191	73.000	33.280	54.535	29.640	58.435	12.982	5.335	5.171	67.127	0.014	-0.003	NaN	73.000	31.850	52.910	24.505	56.680	13.477	8.256	8.240	111.050	-0.523	-0.524	NaN	73.000	42.965	50.895	43.940	58.500	3.599	7.667	6.808	24.501	0.049	0.064	-0.137	73.000	41.665	51.740	38.415	64.675	4.927	13.337	12.764	62.889	-5.329E-15	0.063	0.063	75.000	33.345	46.605	32.370	45.955	10.888	1.172	1.023	11.133	-0.066	0.090	0.144	NaN	NaN	NaN	NaN	NaN	NaN	NaN	NaN	NaN	NaN	NaN	NaN	NaN	NaN	NaN	NaN	NaN	NaN	NaN	NaN	NaN	NaN	NaN	NaN
95	74.000	46.215	44.265	45.955	42.575	3.894	1.710	1.267	4.935	-0.077	NaN	0.064	74.000	31.980	48.360	21.060	48.685	12.119	10.925	10.916	132.297	0.119	0.128	0.002	74.000	30.420	50.375	18.330	52.455	13.946	12.268	12.260	170.977	-0.192	0.075	0.267	74.000	34.775	55.965	34.320	56.420	12.562	0.643	0.643	8.074	0.140	-1.689E-17	-0.138	74.000	33.215	54.470	29.575	58.500	12.892	5.431	5.239	67.541	0.068	0.092	-0.005	74.000	31.720	52.975	24.700	56.550	13.503	7.878	7.866	106.217	-0.374	-0.233	0.145	74.000	42.900	50.960	44.005	58.500	3.638	7.621	6.784	24.682	-0.024	0.009	0.055	74.000	41.665	51.740	38.415	64.675	4.862	13.337	12.849	62.467	0.085	NaN	NaN	76.000	33.410	46.670	32.305	45.955	10.823	1.316	1.157	12.527	0.135	0.055	-0.090	NaN	NaN	NaN	NaN	NaN	NaN	NaN	NaN	NaN	NaN	NaN	NaN	NaN	NaN	NaN	NaN	NaN	NaN	NaN	NaN	NaN	NaN	NaN	NaN
96	75.000	46.150	44.200	45.955	42.575	3.790	1.637	1.293	4.901	0.026	NaN	0.072	75.000	31.980	48.360	20.995	48.685	12.254	10.990	10.979	134.532	0.063	0.065	NaN	75.000	30.615	50.375	18.395	52.455	13.896	12.396	12.384	172.093	0.124	-0.064	-0.192	75.000	34.775	55.900	34.385	56.420	12.658	0.650	0.638	8.070	-0.005	-0.039	-0.052	75.000	33.215	54.600	29.510	58.500	13.107	5.379	5.233	68.584	-0.006	0.045	0.094	75.000	31.590	53.040	24.830	56.485	13.793	7.587	7.576	104.501	-0.290	-0.145	0.145	75.000	42.900	51.025	43.940	58.500	3.804	7.547	6.670	25.371	-0.115	-0.009	0.064	75.000	41.730	51.675	38.480	64.610	4.894	13.337	12.807	62.678	-0.042	-0.079	-0.079	77.000	33.475	46.735	32.175	45.890	10.818	1.550	1.358	14.686	0.200	0.144	-0.090	NaN	NaN	NaN	NaN	NaN	NaN	NaN	NaN	NaN	NaN	NaN	NaN	NaN	NaN	NaN	NaN	NaN	NaN	NaN	NaN	NaN	NaN	NaN	NaN
97	76.000	46.215	44.265	46.020	42.575	3.824	1.701	1.334	5.100	0.040	-0.007	-0.072	76.000	31.980	48.425	20.930	48.620	12.254	11.052	11.034	135.208	0.055	0.064	0.001	76.000	30.680	50.375	18.395	52.455	13.819	12.460	12.450	172.042	0.065	NaN	-0.064	76.000	34.775	55.965	34.385	56.420	12.658	0.599	0.594	7.521	-0.043	NaN	0.049	76.000	33.280	54.405	29.445	58.500	12.912	5.610	5.429	70.093	0.196	0.044	-0.187	76.000	31.655	52.975	24.960	56.420	13.682	7.529	7.514	102.798	-0.063	-0.145	-0.088	76.000	42.900	51.025	44.005	58.500	3.743	7.556	6.626	24.801	-0.044	0.010	NaN	76.000	41.730	51.870	38.415	64.545	5.007	13.101	12.661	63.388	-0.146	-0.046	0.189	78.000	33.540	46.800	32.045	45.825	10.680	1.785	1.552	16.570	0.194	0.144	-0.090	NaN	NaN	NaN	NaN	NaN	NaN	NaN	NaN	NaN	NaN	NaN	NaN	NaN	NaN	NaN	NaN	NaN	NaN	NaN	NaN	NaN	NaN	NaN	NaN
98	77.000	46.215	44.330	45.955	42.575	3.735	1.774	1.361	5.083	0.027	0.010	-0.064	77.000	32.045	48.360	20.800	48.490	12.249	11.246	11.227	137.524	0.193	0.128	-0.066	77.000	30.745	50.375	18.395	52.390	13.819	12.513	12.500	172.735	0.050	-0.010	-0.064	77.000	34.775	56.030	34.450	56.355	12.750	0.460	0.459	5.852	-0.135	-0.092	0.046	77.000	33.150	54.535	29.445	58.565	13.146	5.474	5.285	69.472	-0.144	0.048	0.184	77.000	31.785	52.910	25.025	56.420	13.596	7.617	7.598	103.301	0.084	-0.058	-0.145	77.000	42.900	50.895	44.005	58.500	3.645	7.685	6.638	24.197	0.012	NaN	-0.129	77.000	41.730	51.740	38.480	64.545	4.927	13.211	12.652	62.340	-0.008	-0.016	-0.126	79.000	33.605	46.735	32.045	45.825	10.624	1.806	1.623	17.238	0.071	NaN	-0.023	NaN	NaN	NaN	NaN	NaN	NaN	NaN	NaN	NaN	NaN	NaN	NaN	NaN	NaN	NaN	NaN	NaN	NaN	NaN	NaN	NaN	NaN	NaN	NaN
99	78.000	46.215	44.265	45.955	42.575	3.769	1.710	1.289	4.859	-0.072	NaN	0.064	78.000	31.980	48.295	20.670	48.490	12.249	11.312	11.297	138.373	0.069	0.130	0.064	78.000	30.680	50.440	18.460	52.390	13.847	12.375	12.353	171.045	-0.147	-0.064	0.074	78.000	34.840	55.900	34.450	56.355	12.610	0.599	0.594	7.495	0.135	NaN	-0.141	78.000	33.215	54.535	29.380	58.565	13.072	5.563	5.407	70.680	0.123	0.045	-0.045	78.000	31.915	52.845	25.025	56.355	13.417	7.733	7.720	103.580	0.122	-0.030	-0.145	78.000	42.900	50.960	44.005	58.500	3.743	7.621	6.687	25.029	0.049	NaN	0.064	78.000	41.730	51.740	38.480	64.610	4.950	13.274	12.775	63.240	0.123	0.063	NaN	80.000	33.800	46.800	32.045	45.760	10.425	2.040	1.822	18.996	0.200	0.033	-0.201	NaN	NaN	NaN	NaN	NaN	NaN	NaN	NaN	NaN	NaN	NaN	NaN	NaN	NaN	NaN	NaN	NaN	NaN	NaN	NaN	NaN	NaN	NaN	NaN
100	79.000	46.215	44.265	45.955	42.575	3.824	1.710	1.299	4.969	0.010	NaN	NaN	79.000	31.980	48.360	20.605	48.425	12.249	11.375	11.352	139.057	0.056	0.065	3.714E-4	79.000	30.615	50.570	18.525	52.390	13.924	12.226	12.195	169.803	-0.158	-0.064	0.084	79.000	34.775	55.965	34.515	56.290	12.658	0.416	0.411	5.197	-0.184	-0.091	0.091	79.000	33.280	54.470	29.380	58.695	12.947	5.750	5.559	71.973	0.152	0.096	-0.092	79.000	31.655	52.975	25.025	56.355	13.682	7.442	7.428	101.628	-0.292	NaN	0.291	79.000	42.900	50.895	43.940	58.435	3.621	7.611	6.664	24.133	-0.023	-0.073	-0.064	79.000	41.730	51.805	38.480	64.545	4.950	13.148	12.662	62.682	-0.113	-0.063	0.063	81.000	33.865	46.800	32.110	45.825	10.360	2.008	1.818	18.835	-0.004	-0.088	-0.057	NaN	NaN	NaN	NaN	NaN	NaN	NaN	NaN	NaN	NaN	NaN	NaN	NaN	NaN	NaN	NaN	NaN	NaN	NaN	NaN	NaN	NaN	NaN	NaN
101	80.000	46.150	44.200	45.955	42.575	3.846	1.637	1.302	5.007	0.002	NaN	0.072	80.000	31.980	48.425	20.410	48.360	12.254	11.570	11.533	141.326	0.181	0.195	-3.652E-4	80.000	30.615	50.505	18.850	52.390	13.910	11.915	11.895	165.464	-0.300	-0.321	-0.010	80.000	34.775	55.965	34.450	56.355	12.658	0.508	0.502	6.359	0.092	0.092	NaN	80.000	33.280	54.535	29.315	58.695	12.982	5.747	5.585	72.501	0.026	0.045	0.047	80.000	31.785	52.910	25.025	56.355	13.537	7.587	7.573	102.511	0.145	NaN	-0.145	80.000	43.160	51.545	43.940	58.435	4.162	6.934	6.477	26.956	-0.188	NaN	0.675	80.000	41.730	51.675	38.480	64.545	4.838	13.274	12.726	61.567	0.063	NaN	-0.126	82.000	33.930	46.800	32.175	45.890	10.300	1.977	1.819	18.734	7.684E-4	-0.088	-0.058	NaN	NaN	NaN	NaN	NaN	NaN	NaN	NaN	NaN	NaN	NaN	NaN	NaN	NaN	NaN	NaN	NaN	NaN	NaN	NaN	NaN	NaN	NaN	NaN
102	81.000	46.215	44.135	45.955	42.575	3.935	1.582	1.207	4.749	-0.095	NaN	0.053	81.000	32.110	48.425	20.280	48.360	12.124	11.830	11.792	142.966	0.259	0.130	-0.130	81.000	30.680	50.440	19.110	52.325	13.833	11.723	11.707	161.940	-0.188	-0.267	-0.075	81.000	34.645	56.030	34.450	56.355	12.799	0.379	0.362	4.631	-0.141	NaN	0.123	81.000	33.345	54.405	29.250	58.825	12.857	6.025	5.826	74.905	0.241	0.140	-0.140	81.000	31.980	52.845	25.025	56.355	13.332	7.791	7.778	103.698	0.205	NaN	-0.203	81.000	42.900	51.025	43.940	58.305	3.743	7.354	6.466	24.201	-0.011	-0.129	-0.552	81.000	41.730	51.805	38.480	64.415	4.950	13.022	12.550	62.124	-0.176	-0.126	0.126	83.000	33.930	46.800	32.110	45.825	10.355	2.065	1.878	19.443	0.059	0.088	NaN	NaN	NaN	NaN	NaN	NaN	NaN	NaN	NaN	NaN	NaN	NaN	NaN	NaN	NaN	NaN	NaN	NaN	NaN	NaN	NaN	NaN	NaN	NaN	NaN
103	82.000	46.215	44.070	46.020	42.575	4.047	1.508	1.199	4.855	-0.007	-0.008	0.064	82.000	32.110	48.425	20.280	48.360	12.119	11.830	11.797	142.970	0.005	NaN	NaN	82.000	30.680	50.440	30.550	50.375	13.819	0.145	0.114	1.572	-11.593	-9.360	NaN	82.000	34.645	56.095	34.515	56.355	12.799	0.291	0.270	3.456	-0.092	-0.029	0.058	82.000	32.565	55.120	29.250	58.825	13.865	4.972	4.797	66.506	-1.029	NaN	1.053	82.000	31.915	52.845	25.025	56.355	13.366	7.733	7.716	103.124	-0.063	NaN	0.058	82.000	42.900	50.960	43.940	58.305	3.621	7.418	6.482	23.474	0.016	NaN	-0.064	82.000	41.795	51.675	38.480	64.480	4.749	13.227	12.720	60.409	0.171	0.063	-0.142	84.000	33.930	46.800	32.175	45.825	10.295	2.008	1.818	18.721	-0.059	-0.057	NaN	NaN	NaN	NaN	NaN	NaN	NaN	NaN	NaN	NaN	NaN	NaN	NaN	NaN	NaN	NaN	NaN	NaN	NaN	NaN	NaN	NaN	NaN	NaN	NaN
104	83.000	46.215	44.200	45.955	42.575	3.790	1.646	1.260	4.774	0.060	0.010	-0.128	83.000	32.110	48.425	20.085	48.230	12.194	12.027	11.971	145.974	0.174	0.197	NaN	83.000	30.745	50.440	19.760	52.390	13.847	11.157	11.147	154.348	11.033	10.976	-0.064	83.000	34.710	56.030	34.515	56.355	12.842	0.379	0.362	4.652	0.092	NaN	-0.089	83.000	32.630	55.120	29.185	58.890	13.936	5.107	4.951	68.998	0.154	0.092	-0.044	83.000	31.785	52.910	25.025	56.420	13.622	7.617	7.600	103.529	-0.115	0.030	0.145	83.000	42.965	51.025	43.940	58.305	3.804	7.345	6.508	24.759	0.026	NaN	0.073	83.000	41.730	51.935	38.545	64.480	5.152	12.943	12.488	64.338	-0.232	-0.016	0.268	85.000	33.995	46.865	32.110	45.890	10.230	2.122	1.949	19.934	0.130	0.028	-0.088	NaN	NaN	NaN	NaN	NaN	NaN	NaN	NaN	NaN	NaN	NaN	NaN	NaN	NaN	NaN	NaN	NaN	NaN	NaN	NaN	NaN	NaN	NaN	NaN
105	84.000	46.215	44.135	45.955	42.575	3.935	1.582	1.207	4.749	-0.053	NaN	0.064	84.000	32.045	48.425	19.955	48.230	12.189	12.092	12.042	146.777	0.071	0.130	0.065	84.000	30.680	50.505	19.955	52.325	13.847	10.878	10.865	150.444	-0.282	-0.203	0.075	84.000	34.710	56.095	34.450	56.355	12.794	0.368	0.367	4.698	0.005	0.046	0.046	84.000	32.760	54.925	29.120	58.955	13.630	5.431	5.246	71.504	0.295	0.092	-0.232	84.000	31.915	52.910	25.025	56.355	13.417	7.703	7.694	103.229	0.094	-0.029	-0.116	84.000	42.900	50.830	43.940	58.370	3.561	7.611	6.640	23.643	0.131	0.064	-0.202	84.000	41.730	51.545	38.545	64.480	4.727	13.321	12.693	59.995	0.204	NaN	-0.379	86.000	34.060	46.865	32.175	45.955	10.161	2.093	1.939	19.705	-0.009	-0.087	-0.059	NaN	NaN	NaN	NaN	NaN	NaN	NaN	NaN	NaN	NaN	NaN	NaN	NaN	NaN	NaN	NaN	NaN	NaN	NaN	NaN	NaN	NaN	NaN	NaN
106	85.000	46.150	44.070	45.955	42.575	4.015	1.508	1.212	4.867	0.005	NaN	0.073	85.000	32.045	48.425	19.955	48.230	12.184	12.092	12.047	146.789	0.006	NaN	NaN	85.000	30.680	50.440	20.215	52.325	13.819	10.633	10.629	146.878	-0.236	-0.256	-0.012	85.000	34.645	56.095	34.385	56.420	12.799	0.416	0.410	5.252	0.043	0.091	0.041	85.000	32.955	54.795	28.990	59.150	13.361	5.890	5.689	76.008	0.443	0.232	-0.227	85.000	31.655	52.975	25.025	56.355	13.656	7.442	7.426	101.408	-0.268	NaN	0.261	85.000	42.965	50.960	43.940	58.370	3.599	7.474	6.625	23.842	-0.015	NaN	0.137	85.000	41.795	51.740	38.545	64.415	4.805	13.085	12.600	60.544	-0.093	-0.063	0.173	87.000	34.060	46.930	32.240	45.955	9.901	2.065	1.880	18.615	-0.059	-0.057	-0.031	NaN	NaN	NaN	NaN	NaN	NaN	NaN	NaN	NaN	NaN	NaN	NaN	NaN	NaN	NaN	NaN	NaN	NaN	NaN	NaN	NaN	NaN	NaN	NaN
107	86.000	46.215	44.200	45.955	42.575	3.879	1.646	1.254	4.863	0.041	NaN	-0.139	86.000	31.980	48.295	19.890	48.165	12.245	12.091	12.057	147.638	0.010	0.066	0.066	86.000	30.680	50.505	20.215	52.325	13.847	10.622	10.611	146.929	-0.017	NaN	0.011	86.000	34.645	56.095	34.320	56.485	12.842	0.508	0.502	6.452	0.092	0.092	NaN	86.000	33.085	54.730	28.925	59.215	13.251	6.117	5.931	78.598	0.242	0.092	-0.136	86.000	31.980	52.910	25.025	56.355	13.358	7.761	7.754	103.576	0.328	NaN	-0.320	86.000	42.900	51.025	43.940	58.305	3.743	7.354	6.466	24.201	-0.160	-0.064	0.055	86.000	41.730	51.675	38.545	64.415	4.838	13.132	12.581	60.865	-0.019	NaN	-0.047	88.000	34.060	46.865	32.240	46.085	10.161	1.980	1.866	18.962	-0.014	-0.051	0.026	NaN	NaN	NaN	NaN	NaN	NaN	NaN	NaN	NaN	NaN	NaN	NaN	NaN	NaN	NaN	NaN	NaN	NaN	NaN	NaN	NaN	NaN	NaN	NaN
108	87.000	46.215	44.135	45.955	42.575	4.128	1.582	1.158	4.783	-0.095	NaN	0.064	87.000	32.045	48.360	19.695	48.165	11.921	12.352	12.311	146.751	0.254	0.195	-0.066	87.000	30.225	50.765	20.215	52.325	14.080	10.131	10.103	142.256	-0.508	NaN	0.490	87.000	34.645	56.095	34.320	56.550	12.606	0.559	0.547	6.895	0.045	0.053	NaN	87.000	33.150	54.665	28.925	59.215	12.908	6.209	6.029	77.825	0.098	NaN	-0.092	87.000	31.915	52.910	24.960	56.420	13.153	7.791	7.781	102.342	0.027	0.087	0.058	87.000	43.225	51.935	43.940	58.305	4.413	6.410	6.170	27.230	-0.296	NaN	0.941	87.000	41.730	51.740	38.545	64.415	4.711	13.069	12.688	59.767	0.107	NaN	0.063	89.000	34.125	46.995	32.370	46.085	10.027	1.977	1.805	18.100	-0.061	-0.115	-0.118	NaN	NaN	NaN	NaN	NaN	NaN	NaN	NaN	NaN	NaN	NaN	NaN	NaN	NaN	NaN	NaN	NaN	NaN	NaN	NaN	NaN	NaN	NaN	NaN
109	88.000	46.215	44.135	46.020	42.510	3.935	1.637	1.296	5.100	0.137	0.057	NaN	88.000	32.045	48.360	19.565	48.100	12.184	12.483	12.432	151.475	0.121	0.131	NaN	88.000	467.000	773.000	NaN	NaN	NaN	NaN	NaN	NaN	NaN	NaN	NaN	88.000	34.645	56.095	34.320	56.550	12.842	0.559	0.546	7.009	-0.001	NaN	NaN	88.000	33.280	54.535	28.795	59.345	12.982	6.577	6.374	82.742	0.345	0.184	-0.184	88.000	31.785	52.910	24.960	56.420	13.537	7.675	7.658	103.669	-0.122	NaN	0.116	88.000	42.900	50.960	43.940	58.240	3.682	7.354	6.444	23.728	0.274	-0.064	-1.011	88.000	41.665	51.545	38.545	64.415	4.761	13.243	12.555	59.775	-0.133	NaN	-0.174	90.000	34.125	46.995	32.435	46.215	9.959	1.861	1.728	17.213	-0.077	-0.113	NaN	NaN	NaN	NaN	NaN	NaN	NaN	NaN	NaN	NaN	NaN	NaN	NaN	NaN	NaN	NaN	NaN	NaN	NaN	NaN	NaN	NaN	NaN	NaN	NaN
110	89.000	46.215	44.135	45.955	42.510	4.024	1.646	1.257	5.057	-0.039	0.010	NaN	89.000	31.980	48.360	19.565	48.165	12.180	12.417	12.377	150.752	-0.055	-0.001	0.065	89.000	30.550	50.570	20.215	52.325	13.910	10.483	10.471	145.648	10.471	NaN	NaN	89.000	34.580	56.160	34.320	56.550	12.842	0.469	0.454	5.831	-0.092	NaN	0.090	89.000	33.280	54.470	28.665	59.410	12.857	6.760	6.544	84.132	0.170	0.136	-0.047	89.000	31.785	52.910	25.025	56.420	13.451	7.617	7.597	102.194	-0.061	-0.058	NaN	89.000	42.965	50.960	43.940	58.305	3.577	7.409	6.622	23.685	0.178	0.064	0.009	89.000	41.665	51.870	38.480	64.350	4.950	12.880	12.405	61.406	-0.151	-0.047	0.315	91.000	34.125	46.930	32.565	46.215	9.966	1.716	1.603	15.979	-0.125	-0.118	0.027	NaN	NaN	NaN	NaN	NaN	NaN	NaN	NaN	NaN	NaN	NaN	NaN	NaN	NaN	NaN	NaN	NaN	NaN	NaN	NaN	NaN	NaN	NaN	NaN
111	90.000	46.215	44.135	45.955	42.510	4.003	1.646	1.233	4.935	-0.024	NaN	NaN	90.000	32.110	48.425	19.565	48.230	11.995	12.547	12.494	149.861	0.117	-0.001	-0.131	90.000	30.485	50.700	20.215	52.325	13.953	10.398	10.370	144.694	-0.101	NaN	0.085	90.000	34.645	56.030	34.255	56.615	12.702	0.703	0.682	8.657	0.228	0.090	-0.144	90.000	33.215	54.535	28.535	59.540	12.927	6.852	6.648	85.937	0.104	0.184	0.092	90.000	31.720	52.845	24.960	56.355	13.451	7.617	7.597	102.194	-4.441E-15	0.028	0.028	90.000	42.965	51.025	43.940	58.370	3.680	7.409	6.713	24.704	0.091	0.064	0.064	90.000	41.730	51.740	38.480	64.415	4.830	13.085	12.663	61.157	0.258	0.063	-0.142	92.000	34.125	46.930	32.695	46.280	9.378	1.571	1.468	13.765	-0.136	-0.145	NaN	NaN	NaN	NaN	NaN	NaN	NaN	NaN	NaN	NaN	NaN	NaN	NaN	NaN	NaN	NaN	NaN	NaN	NaN	NaN	NaN	NaN	NaN	NaN	NaN
112	91.000	46.150	44.070	45.955	42.510	4.080	1.572	1.243	5.070	0.010	NaN	0.073	91.000	32.110	48.425	19.565	48.165	11.990	12.548	12.495	149.819	0.001	0.001	NaN	91.000	30.420	50.830	20.215	52.325	14.032	10.314	10.274	144.157	-0.096	NaN	0.083	91.000	34.645	56.160	34.255	56.550	12.745	0.552	0.551	7.022	-0.131	-0.046	0.092	91.000	33.280	54.405	28.470	59.670	12.767	7.131	6.880	87.834	0.232	0.140	-0.140	91.000	31.720	52.845	25.025	56.420	13.425	7.590	7.561	101.506	-0.037	-0.027	NaN	91.000	42.965	50.960	43.940	58.305	3.556	7.409	6.678	23.749	-0.035	-0.064	-0.064	91.000	41.665	51.675	38.545	64.415	4.749	13.116	12.566	59.674	-0.097	-0.015	-0.048	93.000	34.125	46.930	32.760	46.345	9.383	1.485	1.402	13.157	-0.066	-0.085	NaN	NaN	NaN	NaN	NaN	NaN	NaN	NaN	NaN	NaN	NaN	NaN	NaN	NaN	NaN	NaN	NaN	NaN	NaN	NaN	NaN	NaN	NaN	NaN	NaN
113	92.000	46.215	44.200	45.955	42.575	4.294	1.646	1.089	4.677	-0.154	-0.064	-0.139	92.000	31.980	48.360	19.565	48.230	11.536	12.416	12.372	142.725	-0.123	-6.806E-4	0.131	92.000	30.420	50.765	20.215	52.325	13.463	10.324	10.280	138.398	0.006	NaN	-0.010	92.000	34.710	56.030	34.190	56.680	12.227	0.832	0.826	10.098	0.275	0.142	-0.142	92.000	33.280	54.470	28.405	59.670	12.350	7.128	6.957	85.915	0.077	0.044	0.047	92.000	29.510	54.210	24.960	56.355	15.496	5.030	5.030	77.947	-2.531	0.031	2.581	92.000	42.965	51.025	43.940	58.305	3.548	7.345	7.059	25.046	0.380	NaN	0.064	92.000	41.665	51.870	38.545	64.350	4.720	12.864	12.718	60.029	0.152	-0.063	0.189	94.000	33.995	46.930	32.760	46.280	9.504	1.396	1.269	12.058	-0.134	0.030	0.115	NaN	NaN	NaN	NaN	NaN	NaN	NaN	NaN	NaN	NaN	NaN	NaN	NaN	NaN	NaN	NaN	NaN	NaN	NaN	NaN	NaN	NaN	NaN	NaN
114	93.000	46.215	44.135	45.955	42.575	4.396	1.582	1.061	4.664	-0.028	NaN	0.064	93.000	31.980	48.360	19.565	48.230	11.531	12.416	12.378	142.733	0.006	NaN	NaN	NaN	NaN	NaN	NaN	NaN	NaN	NaN	NaN	NaN	NaN	NaN	NaN	93.000	34.645	56.095	34.190	56.615	12.274	0.691	0.688	8.450	-0.137	-0.049	0.092	93.000	33.345	54.470	28.405	59.735	12.259	7.220	7.045	86.367	0.088	0.047	-0.044	93.000	29.315	54.145	24.960	56.420	15.617	4.913	4.908	76.646	-0.122	0.030	0.143	93.000	42.900	50.960	43.940	58.305	3.430	7.418	7.060	24.218	0.002	NaN	-0.073	93.000	41.600	51.675	38.545	64.415	4.508	13.101	12.850	57.929	0.132	0.063	-0.174	95.000	34.060	46.930	32.825	46.345	9.832	1.367	1.268	12.464	-0.001	-0.087	-0.059	NaN	NaN	NaN	NaN	NaN	NaN	NaN	NaN	NaN	NaN	NaN	NaN	NaN	NaN	NaN	NaN	NaN	NaN	NaN	NaN	NaN	NaN	NaN	NaN
115	94.000	46.215	44.200	45.955	42.510	4.244	1.710	1.127	4.783	0.066	0.064	-0.064	94.000	31.980	48.360	19.370	48.295	11.541	12.610	12.566	145.019	0.188	0.195	NaN	NaN	NaN	NaN	NaN	NaN	NaN	NaN	NaN	NaN	NaN	NaN	NaN	94.000	34.710	55.965	34.255	56.550	12.227	0.741	0.734	8.974	0.045	-0.091	-0.143	94.000	33.345	54.470	28.405	59.670	12.333	7.172	7.022	86.596	-0.024	-0.047	NaN	94.000	29.445	54.210	24.895	56.420	15.583	5.058	5.058	78.822	0.150	0.058	-0.089	94.000	42.965	50.895	43.940	58.305	3.484	7.474	7.181	25.020	0.121	NaN	-0.056	94.000	41.665	51.935	38.545	64.480	4.840	12.927	12.798	61.943	-0.053	0.063	0.237	96.000	33.995	46.865	32.825	46.280	9.447	1.308	1.207	11.408	-0.060	0.029	0.087	NaN	NaN	NaN	NaN	NaN	NaN	NaN	NaN	NaN	NaN	NaN	NaN	NaN	NaN	NaN	NaN	NaN	NaN	NaN	NaN	NaN	NaN	NaN	NaN
116	95.000	46.085	44.070	46.020	42.575	4.093	1.496	1.223	5.007	0.096	-0.068	0.136	95.000	31.980	48.360	19.370	48.295	11.925	12.610	12.574	149.941	0.008	NaN	NaN	NaN	NaN	NaN	NaN	NaN	NaN	NaN	NaN	NaN	NaN	NaN	NaN	95.000	34.645	56.030	34.255	56.615	12.558	0.703	0.683	8.581	-0.051	0.054	0.090	95.000	33.280	54.600	28.405	59.670	12.746	7.034	6.871	87.572	-0.151	NaN	0.139	95.000	30.160	53.755	24.765	56.550	15.068	6.076	6.068	91.433	1.010	0.175	-0.844	95.000	42.900	50.960	43.940	58.305	3.580	7.418	6.784	24.290	-0.397	NaN	0.055	95.000	41.665	51.935	38.480	64.415	4.942	12.880	12.587	62.200	-0.211	-0.047	NaN	97.000	33.800	46.800	32.825	46.345	10.040	1.076	1.007	10.115	-0.200	-0.027	0.204	NaN	NaN	NaN	NaN	NaN	NaN	NaN	NaN	NaN	NaN	NaN	NaN	NaN	NaN	NaN	NaN	NaN	NaN	NaN	NaN	NaN	NaN	NaN	NaN
117	96.000	46.215	44.200	45.955	42.575	4.336	1.646	1.075	4.660	-0.148	0.010	-0.149	96.000	31.720	48.295	19.370	48.165	11.726	12.351	12.314	144.394	-0.260	0.001	0.261	NaN	NaN	NaN	NaN	NaN	NaN	NaN	NaN	NaN	NaN	NaN	NaN	96.000	34.645	55.965	34.255	56.550	12.182	0.703	0.687	8.366	0.003	-0.054	-0.054	96.000	33.345	54.405	28.340	59.670	12.206	7.264	7.103	86.701	0.233	0.045	-0.186	96.000	29.055	54.340	24.570	56.615	15.904	5.029	5.027	79.954	-1.041	0.203	1.250	96.000	42.965	51.025	43.940	58.370	3.539	7.409	7.159	25.337	0.375	0.064	0.073	96.000	41.730	51.740	38.545	64.415	4.550	13.069	12.951	58.935	0.364	-0.016	-0.205	98.000	33.865	46.865	32.760	46.280	9.966	1.250	1.141	11.369	0.133	0.088	-0.088	NaN	NaN	NaN	NaN	NaN	NaN	NaN	NaN	NaN	NaN	NaN	NaN	NaN	NaN	NaN	NaN	NaN	NaN	NaN	NaN	NaN	NaN	NaN	NaN
118	97.000	46.215	44.265	45.955	42.575	4.096	1.710	1.215	4.977	0.140	NaN	-0.064	97.000	31.915	48.425	19.370	48.165	11.925	12.548	12.495	149.003	0.181	NaN	-0.198	NaN	NaN	NaN	NaN	NaN	NaN	NaN	NaN	NaN	NaN	NaN	NaN	97.000	34.645	56.095	34.255	56.550	12.510	0.599	0.595	7.449	-0.091	NaN	0.099	97.000	33.280	54.470	28.275	59.735	12.584	7.264	7.071	88.979	-0.033	0.092	0.092	97.000	30.095	53.820	24.505	56.680	15.068	6.279	6.273	94.513	1.245	0.087	-1.163	97.000	43.030	50.830	43.940	58.305	3.342	7.530	7.056	23.584	-0.102	-0.065	-0.186	97.000	41.730	51.675	38.545	64.415	4.593	13.132	12.801	58.795	-0.150	NaN	-0.063	99.000	33.865	46.800	32.760	46.280	9.776	1.221	1.140	11.146	-7.293E-4	NaN	0.028	NaN	NaN	NaN	NaN	NaN	NaN	NaN	NaN	NaN	NaN	NaN	NaN	NaN	NaN	NaN	NaN	NaN	NaN	NaN	NaN	NaN	NaN	NaN	NaN
119	98.000	46.215	44.265	45.955	42.575	4.043	1.710	1.204	4.867	-0.011	NaN	NaN	98.000	31.785	48.490	19.305	48.100	12.064	12.486	12.408	149.692	-0.087	0.067	0.128	NaN	NaN	NaN	NaN	NaN	NaN	NaN	NaN	NaN	NaN	NaN	NaN	98.000	34.645	55.965	34.255	56.615	12.466	0.758	0.727	9.067	0.132	0.056	-0.111	98.000	33.345	54.405	28.340	59.670	12.529	7.264	7.076	88.653	0.005	-0.092	-0.092	98.000	30.420	53.625	24.505	56.680	14.718	6.657	6.649	97.868	0.377	NaN	-0.378	98.000	43.030	51.090	43.940	58.305	3.659	7.272	6.855	25.084	-0.201	NaN	0.258	98.000	41.730	51.805	38.545	64.350	4.768	12.943	12.678	60.443	-0.123	-0.063	0.126	100.000	33.800	46.865	32.630	46.215	9.966	1.338	1.210	12.058	0.070	0.145	0.025	NaN	NaN	NaN	NaN	NaN	NaN	NaN	NaN	NaN	NaN	NaN	NaN	NaN	NaN	NaN	NaN	NaN	NaN	NaN	NaN	NaN	NaN	NaN	NaN
120	99.000	46.215	44.395	45.955	42.575	4.061	1.838	1.232	5.002	0.028	NaN	-0.129	99.000	31.785	48.555	19.240	48.035	11.876	12.556	12.451	147.867	0.044	0.068	-0.003	NaN	NaN	NaN	NaN	NaN	NaN	NaN	NaN	NaN	NaN	NaN	NaN	99.000	34.645	55.965	34.190	56.680	12.323	0.847	0.821	10.123	0.094	0.090	NaN	99.000	33.280	54.535	28.275	59.735	12.494	7.217	7.062	88.231	-0.014	0.092	0.139	99.000	30.420	53.625	24.440	56.745	14.541	6.745	6.737	97.969	0.088	0.088	NaN	99.000	42.965	50.895	43.940	58.305	3.442	7.474	7.093	24.412	0.237	NaN	-0.202	99.000	41.730	51.870	38.545	64.415	4.745	12.943	12.778	60.637	0.100	0.063	0.063	101.000	33.605	46.735	32.630	46.215	10.364	1.105	1.011	10.482	-0.199	NaN	0.233	NaN	NaN	NaN	NaN	NaN	NaN	NaN	NaN	NaN	NaN	NaN	NaN	NaN	NaN	NaN	NaN	NaN	NaN	NaN	NaN	NaN	NaN	NaN	NaN
121	100.000	46.215	44.265	46.020	42.510	4.082	1.766	1.279	5.222	0.048	0.057	0.129	100.000	31.915	48.685	19.045	47.970	11.888	12.890	12.737	151.416	0.286	0.198	-0.137	NaN	NaN	NaN	NaN	NaN	NaN	NaN	NaN	NaN	NaN	NaN	NaN	100.000	34.710	56.030	34.060	56.810	12.415	1.015	1.008	12.514	0.187	0.183	0.008	100.000	33.345	54.470	28.210	59.800	12.511	7.401	7.231	90.474	0.169	0.092	-0.092	100.000	30.485	53.560	24.440	56.810	14.573	6.863	6.849	99.803	0.111	0.031	-0.088	100.000	42.900	50.895	43.940	58.305	3.484	7.483	6.937	24.167	-0.156	NaN	-0.009	100.000	41.730	52.000	38.545	64.415	4.917	12.817	12.630	62.099	-0.148	NaN	0.126	102.000	33.540	46.670	32.565	46.215	10.634	1.076	1.010	10.744	-0.001	0.059	0.086	NaN	NaN	NaN	NaN	NaN	NaN	NaN	NaN	NaN	NaN	NaN	NaN	NaN	NaN	NaN	NaN	NaN	NaN	NaN	NaN	NaN	NaN	NaN	NaN
122	101.000	46.280	44.265	45.955	42.510	4.005	1.785	1.234	4.943	-0.045	0.012	-0.012	101.000	31.980	48.685	18.850	47.970	12.017	13.149	12.998	156.198	0.261	0.195	-0.065	NaN	NaN	NaN	NaN	NaN	NaN	NaN	NaN	NaN	NaN	NaN	NaN	101.000	34.645	56.030	34.125	56.810	12.606	0.937	0.910	11.475	-0.098	-0.036	0.036	101.000	33.410	54.340	28.275	59.735	12.548	7.448	7.243	90.892	0.012	-0.092	-0.139	101.000	30.680	53.430	24.440	56.745	14.519	7.066	7.049	102.351	0.201	-0.030	-0.233	101.000	42.965	50.895	43.940	58.370	3.518	7.538	6.912	24.315	-0.025	0.064	0.008	101.000	41.730	51.740	38.545	64.415	4.768	13.069	12.708	60.591	0.078	NaN	-0.252	103.000	33.475	46.670	32.500	46.085	10.116	1.137	1.024	10.355	0.013	0.123	0.056	NaN	NaN	NaN	NaN	NaN	NaN	NaN	NaN	NaN	NaN	NaN	NaN	NaN	NaN	NaN	NaN	NaN	NaN	NaN	NaN	NaN	NaN	NaN	NaN
123	102.000	46.215	44.200	45.955	42.510	3.969	1.710	1.303	5.171	0.069	NaN	0.074	102.000	32.110	48.620	18.785	47.905	12.070	13.344	13.214	159.490	0.216	0.068	-0.126	NaN	NaN	NaN	NaN	NaN	NaN	NaN	NaN	NaN	NaN	NaN	NaN	102.000	34.710	56.095	34.125	56.810	12.702	0.924	0.913	11.602	0.003	NaN	0.009	102.000	33.410	54.340	28.340	59.670	12.678	7.356	7.131	90.407	-0.112	-0.092	NaN	102.000	30.745	53.430	24.375	56.745	14.612	7.181	7.164	104.687	0.115	0.058	-0.058	102.000	42.965	51.025	43.940	58.305	3.638	7.345	6.580	23.939	-0.332	-0.064	0.129	102.000	41.795	51.740	38.545	64.415	4.773	13.085	12.641	60.333	-0.067	NaN	-0.016	104.000	33.475	46.605	32.305	46.150	10.699	1.255	1.204	12.886	0.181	0.158	0.024	NaN	NaN	NaN	NaN	NaN	NaN	NaN	NaN	NaN	NaN	NaN	NaN	NaN	NaN	NaN	NaN	NaN	NaN	NaN	NaN	NaN	NaN	NaN	NaN
124	103.000	46.215	44.200	45.955	42.510	4.304	1.710	1.166	5.019	-0.137	NaN	NaN	103.000	32.045	48.620	18.720	47.905	11.552	13.344	13.207	152.561	-0.007	0.065	0.065	NaN	NaN	NaN	NaN	NaN	NaN	NaN	NaN	NaN	NaN	NaN	NaN	103.000	34.645	56.095	34.060	56.810	12.321	0.924	0.917	11.298	0.004	0.041	0.041	103.000	33.345	54.340	28.340	59.670	12.241	7.312	7.116	87.107	-0.015	NaN	0.044	103.000	31.005	53.235	24.310	56.810	13.761	7.590	7.573	104.205	0.408	0.088	-0.321	103.000	42.965	50.960	43.940	58.305	3.430	7.409	7.071	24.256	0.491	NaN	-0.064	103.000	41.730	52.000	38.545	64.415	4.780	12.817	12.693	60.671	0.052	NaN	0.268	105.000	33.540	46.735	32.305	46.150	10.235	1.367	1.276	13.059	0.072	NaN	-0.114	NaN	NaN	NaN	NaN	NaN	NaN	NaN	NaN	NaN	NaN	NaN	NaN	NaN	NaN	NaN	NaN	NaN	NaN	NaN	NaN	NaN	NaN	NaN	NaN
125	104.000	46.215	44.200	46.020	42.575	3.914	1.637	1.273	4.981	0.107	-0.072	NaN	104.000	31.850	48.620	18.590	47.840	12.335	13.283	13.137	162.037	-0.070	0.134	0.195	NaN	NaN	NaN	NaN	NaN	NaN	NaN	NaN	NaN	NaN	NaN	NaN	104.000	34.710	56.030	33.995	56.940	12.702	1.157	1.141	14.488	0.224	0.142	-0.091	104.000	33.345	54.405	28.340	59.670	12.802	7.264	7.052	90.280	-0.064	NaN	0.047	104.000	31.070	53.235	24.245	56.875	14.262	7.735	7.712	109.989	0.139	0.088	-0.057	104.000	42.965	50.960	43.940	58.305	3.638	7.409	6.641	24.163	-0.430	NaN	NaN	104.000	41.730	51.935	38.545	64.350	5.032	12.817	12.427	62.534	-0.265	-0.063	-0.063	106.000	33.670	46.800	32.370	46.215	10.559	1.426	1.340	14.145	0.064	-0.086	-0.145	NaN	NaN	NaN	NaN	NaN	NaN	NaN	NaN	NaN	NaN	NaN	NaN	NaN	NaN	NaN	NaN	NaN	NaN	NaN	NaN	NaN	NaN	NaN	NaN
126	105.000	46.150	44.135	46.020	42.510	4.148	1.630	1.249	5.180	-0.024	0.065	0.070	105.000	31.915	48.685	18.590	47.775	11.888	13.356	13.171	156.570	0.034	0.004	-0.069	NaN	NaN	NaN	NaN	NaN	NaN	NaN	NaN	NaN	NaN	NaN	NaN	105.000	34.710	56.030	33.930	57.070	12.415	1.300	1.281	15.903	0.140	0.143	NaN	105.000	33.280	54.405	28.340	59.670	12.529	7.220	7.021	87.973	-0.031	NaN	0.044	105.000	31.135	53.235	24.180	56.875	13.847	7.850	7.838	108.523	0.126	0.058	-0.058	105.000	42.900	50.895	43.940	58.305	3.484	7.483	6.937	24.167	0.295	NaN	-0.073	105.000	41.730	51.740	38.545	64.350	4.681	13.006	12.753	59.695	0.325	NaN	-0.189	107.000	33.605	46.800	32.305	46.280	10.494	1.400	1.335	14.010	-0.005	0.036	0.060	NaN	NaN	NaN	NaN	NaN	NaN	NaN	NaN	NaN	NaN	NaN	NaN	NaN	NaN	NaN	NaN	NaN	NaN	NaN	NaN	NaN	NaN	NaN	NaN
127	106.000	46.215	44.200	46.020	42.575	3.935	1.637	1.296	5.100	0.047	-0.065	-0.072	106.000	31.460	48.685	18.590	47.840	12.788	12.898	12.749	163.030	-0.422	-0.004	0.454	NaN	NaN	NaN	NaN	NaN	NaN	NaN	NaN	NaN	NaN	NaN	NaN	106.000	34.645	56.030	33.800	57.070	12.755	1.340	1.322	16.862	0.041	0.082	0.041	106.000	33.280	54.405	28.340	59.605	12.877	7.172	6.945	89.435	-0.076	-0.047	NaN	106.000	31.460	53.040	24.115	56.940	13.861	8.316	8.287	114.869	0.450	0.088	-0.378	106.000	43.225	52.000	43.940	58.305	4.526	6.345	6.003	27.171	-0.934	NaN	1.135	106.000	41.730	51.805	38.545	64.415	4.894	13.006	12.494	61.144	-0.259	0.063	0.063	108.000	33.540	46.735	32.370	46.215	10.375	1.280	1.211	12.565	-0.124	-0.033	0.086	NaN	NaN	NaN	NaN	NaN	NaN	NaN	NaN	NaN	NaN	NaN	NaN	NaN	NaN	NaN	NaN	NaN	NaN	NaN	NaN	NaN	NaN	NaN	NaN
128	107.000	46.215	44.200	45.955	42.510	4.003	1.710	1.288	5.155	-0.008	0.074	NaN	107.000	31.655	48.815	18.525	47.840	12.476	13.166	12.969	161.805	0.220	0.065	-0.204	NaN	NaN	NaN	NaN	NaN	NaN	NaN	NaN	NaN	NaN	NaN	NaN	107.000	34.645	56.030	33.800	57.135	12.658	1.391	1.367	17.301	0.045	0.052	NaN	107.000	33.280	54.405	28.405	59.540	12.767	7.081	6.865	87.648	-0.080	-0.092	NaN	107.000	31.330	53.040	24.050	57.005	13.861	8.290	8.253	114.396	-0.034	0.088	0.114	107.000	43.225	52.000	43.940	58.305	4.500	6.345	6.059	27.264	0.056	NaN	NaN	107.000	41.665	51.740	38.545	64.350	4.805	12.990	12.478	59.961	-0.015	-0.063	-0.047	109.000	33.605	46.735	32.370	46.215	10.440	1.340	1.276	13.317	0.065	NaN	-0.060	NaN	NaN	NaN	NaN	NaN	NaN	NaN	NaN	NaN	NaN	NaN	NaN	NaN	NaN	NaN	NaN	NaN	NaN	NaN	NaN	NaN	NaN	NaN	NaN
129	108.000	46.215	44.200	46.020	42.510	4.165	1.701	1.288	5.366	8.267E-4	-0.007	NaN	108.000	31.525	48.815	18.460	47.840	12.405	13.101	12.915	160.212	-0.054	0.065	0.130	NaN	NaN	NaN	NaN	NaN	NaN	NaN	NaN	NaN	NaN	NaN	NaN	108.000	34.645	56.095	33.605	57.330	12.514	1.615	1.601	20.035	0.234	0.275	0.050	108.000	33.150	54.600	28.470	59.540	12.783	6.805	6.614	84.551	-0.251	-0.045	0.231	108.000	31.330	53.040	23.985	57.005	13.656	8.347	8.314	113.534	0.061	0.057	NaN	108.000	43.225	51.935	43.940	58.370	4.339	6.475	6.255	27.141	0.197	0.065	-0.065	108.000	41.600	52.000	38.545	64.350	4.913	12.722	12.361	60.734	-0.118	NaN	0.268	110.000	33.475	46.670	32.370	46.280	10.569	1.172	1.134	11.991	-0.141	-0.022	0.144	NaN	NaN	NaN	NaN	NaN	NaN	NaN	NaN	NaN	NaN	NaN	NaN	NaN	NaN	NaN	NaN	NaN	NaN	NaN	NaN	NaN	NaN	NaN	NaN
130	109.000	46.215	44.200	45.955	42.510	4.093	1.710	1.282	5.247	-0.006	0.010	NaN	109.000	31.720	48.880	18.590	47.905	12.347	13.166	12.967	160.098	0.052	-0.134	-0.199	NaN	NaN	NaN	NaN	NaN	NaN	NaN	NaN	NaN	NaN	NaN	NaN	109.000	34.580	56.160	33.540	57.460	12.702	1.665	1.643	20.872	0.042	0.142	0.091	109.000	33.215	54.535	28.470	59.475	12.802	6.850	6.658	85.235	0.043	-0.047	-0.092	109.000	31.655	52.910	23.985	57.005	13.425	8.695	8.662	116.285	0.348	NaN	-0.348	109.000	43.225	51.935	43.940	58.305	4.360	6.410	6.139	26.770	-0.116	-0.065	NaN	109.000	41.665	52.195	38.545	64.415	5.116	12.612	12.294	62.902	-0.067	0.063	0.173	111.000	33.540	46.735	32.435	46.280	10.564	1.195	1.138	12.020	0.003	-0.060	-0.085	NaN	NaN	NaN	NaN	NaN	NaN	NaN	NaN	NaN	NaN	NaN	NaN	NaN	NaN	NaN	NaN	NaN	NaN	NaN	NaN	NaN	NaN	NaN	NaN
131	110.000	46.215	44.200	45.955	42.575	4.038	1.646	1.218	4.918	-0.064	-0.064	NaN	110.000	31.785	48.815	18.655	47.905	12.282	13.161	12.972	159.325	0.005	-0.065	-0.060	NaN	NaN	NaN	NaN	NaN	NaN	NaN	NaN	NaN	NaN	NaN	NaN	110.000	34.645	56.030	33.475	57.460	12.610	1.848	1.827	23.035	0.184	0.041	-0.142	110.000	33.150	54.600	28.600	59.345	12.927	6.574	6.397	82.700	-0.260	-0.184	0.092	110.000	31.655	52.910	23.985	57.070	13.451	8.726	8.691	116.897	0.029	0.031	NaN	110.000	42.965	50.895	43.940	58.305	3.474	7.474	6.778	23.550	0.639	NaN	-1.065	110.000	41.665	52.065	38.545	64.350	5.059	12.675	12.335	62.399	0.041	-0.063	-0.126	112.000	33.540	46.735	32.695	46.280	10.564	0.960	0.879	9.282	-0.259	-0.229	NaN	NaN	NaN	NaN	NaN	NaN	NaN	NaN	NaN	NaN	NaN	NaN	NaN	NaN	NaN	NaN	NaN	NaN	NaN	NaN	NaN	NaN	NaN	NaN	NaN
132	111.000	46.215	44.200	46.020	42.510	4.003	1.701	1.322	5.294	0.105	0.057	NaN	111.000	31.980	48.815	18.590	47.840	12.153	13.425	13.222	160.681	0.250	0.070	-0.194	NaN	NaN	NaN	NaN	NaN	NaN	NaN	NaN	NaN	NaN	NaN	NaN	111.000	34.645	56.030	33.410	57.590	12.658	1.990	1.961	24.822	0.134	0.142	NaN	111.000	33.215	54.470	28.795	59.215	12.857	6.485	6.275	80.672	-0.123	-0.228	-0.139	111.000	31.655	52.910	23.920	57.070	13.511	8.783	8.749	118.203	0.058	0.057	NaN	111.000	43.225	51.935	43.940	58.305	4.436	6.410	6.117	27.137	-0.661	NaN	1.063	111.000	41.665	52.260	38.545	64.415	5.262	12.549	12.237	64.389	-0.098	0.063	0.189	113.000	33.540	46.800	32.695	46.345	10.364	0.960	0.877	9.088	-0.002	-0.031	-0.031	NaN	NaN	NaN	NaN	NaN	NaN	NaN	NaN	NaN	NaN	NaN	NaN	NaN	NaN	NaN	NaN	NaN	NaN	NaN	NaN	NaN	NaN	NaN	NaN
133	112.000	46.215	44.200	45.955	42.510	4.003	1.710	1.288	5.155	-0.035	0.010	NaN	112.000	31.850	48.620	18.590	47.840	12.264	13.283	13.146	161.226	-0.076	NaN	0.141	NaN	NaN	NaN	NaN	NaN	NaN	NaN	NaN	NaN	NaN	NaN	NaN	112.000	34.645	56.030	33.345	57.655	12.658	2.081	2.053	25.984	0.092	0.091	NaN	112.000	33.150	54.535	28.925	59.085	12.947	6.209	6.008	77.782	-0.267	-0.184	0.092	112.000	31.525	52.975	23.920	57.070	13.656	8.637	8.604	117.497	-0.145	NaN	0.145	112.000	43.225	51.935	43.940	58.305	4.436	6.410	6.117	27.137	NaN	NaN	NaN	112.000	41.665	52.325	38.545	64.350	5.320	12.423	12.136	64.562	-0.101	-0.063	0.063	114.000	33.410	46.670	32.630	46.345	10.564	0.845	0.803	8.488	-0.073	0.060	0.170	NaN	NaN	NaN	NaN	NaN	NaN	NaN	NaN	NaN	NaN	NaN	NaN	NaN	NaN	NaN	NaN	NaN	NaN	NaN	NaN	NaN	NaN	NaN	NaN
134	113.000	46.215	44.070	45.955	42.510	4.218	1.582	1.154	4.867	-0.134	NaN	0.128	113.000	31.590	48.620	18.590	47.840	12.329	13.023	12.888	158.894	-0.258	NaN	0.260	NaN	NaN	NaN	NaN	NaN	NaN	NaN	NaN	NaN	NaN	NaN	NaN	113.000	34.645	56.030	33.280	57.655	12.514	2.122	2.104	26.330	0.051	0.042	NaN	113.000	33.150	54.535	29.055	58.890	12.783	5.978	5.805	74.208	-0.203	-0.231	NaN	113.000	31.655	53.040	23.790	57.135	13.384	8.867	8.851	118.469	0.247	0.145	-0.085	113.000	43.225	51.935	43.940	58.305	4.403	6.410	6.195	27.277	0.077	NaN	NaN	113.000	41.600	53.170	38.545	64.350	6.035	11.590	11.507	69.446	-0.630	NaN	0.832	115.000	33.280	46.670	32.695	46.345	10.828	0.669	0.610	6.608	-0.193	-0.057	0.114	NaN	NaN	NaN	NaN	NaN	NaN	NaN	NaN	NaN	NaN	NaN	NaN	NaN	NaN	NaN	NaN	NaN	NaN	NaN	NaN	NaN	NaN	NaN	NaN
135	114.000	46.280	44.200	45.955	42.510	4.058	1.721	1.193	4.842	0.039	NaN	-0.140	114.000	31.720	48.685	18.720	47.905	12.276	13.023	12.866	157.947	-0.021	-0.134	-0.134	NaN	NaN	NaN	NaN	NaN	NaN	NaN	NaN	NaN	NaN	NaN	NaN	114.000	34.645	56.030	33.215	57.720	12.606	2.214	2.196	27.682	0.092	0.092	NaN	114.000	33.085	54.795	29.250	58.825	13.070	5.563	5.430	70.967	-0.376	-0.182	0.233	114.000	31.460	53.040	23.790	57.135	13.648	8.695	8.671	118.346	-0.180	NaN	0.172	114.000	42.900	50.895	43.940	58.305	3.536	7.483	6.776	23.964	0.582	NaN	-1.075	114.000	41.535	52.975	38.545	64.350	5.966	11.761	11.615	69.298	0.108	NaN	-0.172	116.000	33.280	46.800	32.695	46.475	10.948	0.669	0.607	6.642	-0.004	-0.063	-0.063	NaN	NaN	NaN	NaN	NaN	NaN	NaN	NaN	NaN	NaN	NaN	NaN	NaN	NaN	NaN	NaN	NaN	NaN	NaN	NaN	NaN	NaN	NaN	NaN
136	115.000	46.215	44.200	45.955	42.510	4.003	1.710	1.288	5.155	0.094	NaN	0.010	115.000	31.525	48.555	19.500	48.100	12.583	12.034	11.954	150.410	-0.913	-0.787	0.200	NaN	NaN	NaN	NaN	NaN	NaN	NaN	NaN	NaN	NaN	NaN	NaN	115.000	34.645	56.030	33.150	57.785	12.658	2.305	2.285	28.920	0.089	0.092	NaN	115.000	33.085	54.665	29.510	58.630	13.072	5.339	5.153	67.363	-0.276	-0.319	-0.097	115.000	31.525	53.040	23.790	57.200	13.682	8.783	8.753	119.749	0.081	0.031	-0.057	115.000	42.965	50.960	43.940	58.305	3.556	7.409	6.678	23.749	-0.098	NaN	0.073	115.000	41.665	52.260	38.610	64.350	5.262	12.470	12.150	63.928	0.534	-0.016	-0.725	117.000	33.280	46.865	32.695	46.540	10.879	0.669	0.605	6.583	-0.002	-0.032	-0.032	NaN	NaN	NaN	NaN	NaN	NaN	NaN	NaN	NaN	NaN	NaN	NaN	NaN	NaN	NaN	NaN	NaN	NaN	NaN	NaN	NaN	NaN	NaN	NaN
137	116.000	46.215	44.200	45.955	42.510	3.935	1.710	1.318	5.188	0.031	NaN	NaN	116.000	31.850	48.555	19.500	48.100	12.388	12.358	12.276	152.079	0.322	NaN	-0.325	NaN	NaN	NaN	NaN	NaN	NaN	NaN	NaN	NaN	NaN	NaN	NaN	116.000	34.580	56.095	33.150	57.915	12.847	2.315	2.277	29.254	-0.008	0.102	0.091	116.000	33.150	54.730	29.705	58.435	13.161	5.059	4.905	64.558	-0.248	-0.276	0.003	116.000	31.395	53.105	23.725	57.200	13.946	8.695	8.665	120.839	-0.088	0.057	0.145	116.000	42.965	51.025	43.940	58.305	3.660	7.345	6.524	23.875	-0.154	NaN	0.064	116.000	41.600	52.455	38.610	64.350	5.525	12.265	11.903	65.762	-0.247	NaN	0.205	118.000	33.280	46.800	32.825	46.605	10.888	0.495	0.469	5.104	-0.136	-0.145	0.026	NaN	NaN	NaN	NaN	NaN	NaN	NaN	NaN	NaN	NaN	NaN	NaN	NaN	NaN	NaN	NaN	NaN	NaN	NaN	NaN	NaN	NaN	NaN	NaN
138	117.000	46.150	44.135	45.955	42.510	3.991	1.637	1.304	5.205	-0.014	NaN	0.072	117.000	31.655	48.555	19.630	48.100	12.518	12.034	11.953	149.628	-0.323	-0.130	0.195	NaN	NaN	NaN	NaN	NaN	NaN	NaN	NaN	NaN	NaN	NaN	NaN	117.000	34.580	56.030	33.085	58.045	12.755	2.509	2.455	31.311	0.178	0.143	-0.052	117.000	33.085	54.730	29.770	58.370	13.161	4.923	4.761	62.657	-0.144	-0.092	0.044	117.000	31.460	53.105	23.725	57.200	13.827	8.752	8.727	120.666	0.062	NaN	-0.057	117.000	42.965	50.895	43.940	58.370	3.515	7.538	6.724	23.639	0.200	0.064	-0.129	117.000	41.665	52.065	38.675	64.025	5.120	12.328	11.919	61.026	0.016	-0.331	-0.394	119.000	33.345	46.930	33.020	46.670	10.874	0.416	0.340	3.697	-0.129	-0.193	-0.132	NaN	NaN	NaN	NaN	NaN	NaN	NaN	NaN	NaN	NaN	NaN	NaN	NaN	NaN	NaN	NaN	NaN	NaN	NaN	NaN	NaN	NaN	NaN	NaN
139	118.000	46.215	44.200	45.955	42.510	4.024	1.710	1.312	5.281	0.008	NaN	-0.074	118.000	31.785	48.490	19.695	48.100	12.379	12.096	12.035	148.982	0.082	-0.065	-0.128	NaN	NaN	NaN	NaN	NaN	NaN	NaN	NaN	NaN	NaN	NaN	NaN	118.000	34.580	56.160	33.085	58.110	12.799	2.457	2.413	30.889	-0.041	0.052	0.103	118.000	33.085	54.665	29.965	58.175	13.091	4.696	4.516	59.116	-0.245	-0.275	-0.049	118.000	31.200	53.170	23.660	57.265	14.066	8.580	8.542	120.155	-0.184	0.088	0.260	118.000	43.030	51.090	43.940	58.305	3.618	7.272	6.592	23.850	-0.132	-0.064	0.202	118.000	41.600	52.000	38.675	64.090	5.039	12.439	11.920	60.067	0.001	0.063	-0.048	120.000	33.475	46.930	33.150	46.670	10.745	0.416	0.340	3.655	1.736E-4	-0.102	-0.102	NaN	NaN	NaN	NaN	NaN	NaN	NaN	NaN	NaN	NaN	NaN	NaN	NaN	NaN	NaN	NaN	NaN	NaN	NaN	NaN	NaN	NaN	NaN	NaN
140	119.000	46.215	44.200	45.955	42.510	3.935	1.710	1.318	5.188	0.006	NaN	NaN	119.000	31.655	48.490	19.760	48.165	12.578	11.899	11.840	148.927	-0.195	-0.067	0.130	NaN	NaN	NaN	NaN	NaN	NaN	NaN	NaN	NaN	NaN	NaN	NaN	119.000	34.580	56.160	32.955	58.175	12.890	2.589	2.554	32.921	0.140	0.132	NaN	119.000	33.020	54.795	30.095	58.045	13.306	4.372	4.220	56.150	-0.296	-0.184	0.140	119.000	31.330	53.170	23.595	57.330	14.032	8.783	8.752	122.804	0.209	0.088	-0.114	119.000	42.965	50.960	43.940	58.305	3.599	7.409	6.564	23.622	-0.028	NaN	-0.137	119.000	41.665	52.390	38.675	63.960	5.437	11.950	11.630	63.231	-0.291	-0.126	0.361	NaN	NaN	NaN	NaN	NaN	NaN	NaN	NaN	NaN	NaN	NaN	NaN	NaN	NaN	NaN	NaN	NaN	NaN	NaN	NaN	NaN	NaN	NaN	NaN	NaN	NaN	NaN	NaN	NaN	NaN	NaN	NaN	NaN	NaN	NaN	NaN
141	120.000	46.215	44.135	45.955	42.510	3.991	1.646	1.271	5.074	-0.047	NaN	0.064	120.000	31.655	48.425	19.825	48.165	12.573	11.833	11.786	148.188	-0.055	-0.065	0.001	NaN	NaN	NaN	NaN	NaN	NaN	NaN	NaN	NaN	NaN	NaN	NaN	120.000	34.580	56.095	32.955	58.305	12.847	2.743	2.682	34.451	0.128	0.105	-0.052	120.000	33.020	54.730	30.225	57.850	13.271	4.189	4.036	53.556	-0.184	-0.232	-0.048	120.000	31.265	53.170	23.530	57.330	14.091	8.783	8.751	123.307	-0.001	0.057	0.057	120.000	43.030	51.155	44.005	58.305	3.762	7.216	6.492	24.421	-0.072	0.009	0.202	120.000	41.600	52.455	38.675	63.960	5.525	11.871	11.528	63.692	-0.102	NaN	0.079	NaN	NaN	NaN	NaN	NaN	NaN	NaN	NaN	NaN	NaN	NaN	NaN	NaN	NaN	NaN	NaN	NaN	NaN	NaN	NaN	NaN	NaN	NaN	NaN	NaN	NaN	NaN	NaN	NaN	NaN	NaN	NaN	NaN	NaN	NaN	NaN
